%OpenBCI Raw EEG Data
%Number of channels = 16
%Sample Rate = 125 Hz
%Board = OpenBCI_GUI$BoardCytonSerialDaisy
Sample Index, EXG Channel 0, EXG Channel 1, EXG Channel 2, EXG Channel 3, EXG Channel 4, EXG Channel 5, EXG Channel 6, EXG Channel 7, EXG Channel 8, EXG Channel 9, EXG Channel 10, EXG Channel 11, EXG Channel 12, EXG Channel 13, EXG Channel 14, EXG Channel 15, Accel Channel 0, Accel Channel 1, Accel Channel 2, Other, Other, Other, Other, Other, Other, Other, Analog Channel 0, Analog Channel 1, Analog Channel 2, Timestamp, Timestamp (Formatted)
0.0, 118883.203125, 118852.1796875, -187500.015625, 118944.3125, 118970.4609375, 118915.140625, 118893.1015625, 118799.921875, -93750.0078125, 81176.4609375, -93750.0078125, -93750.0078125, 81247.46875, 81212.9609375, -93750.0078125, 81214.9921875, 0.010000000707805157, 0.4620000123977661, 0.15400001406669617, 192.0, 0.0, 40.0, 7.0, 56.0, 2.0, 104.0, 0.0, 0.0, 0.0, 1.6166613216418605E9, 2021-03-25 11:35:21.641
2.0, 118903.9453125, 118872.8984375, -187500.015625, 118964.8984375, 118991.140625, 118935.6875, 118913.7109375, 118820.5703125, -187500.015625, 162336.09375, -187500.015625, -187500.015625, 162478.0625, 162409.015625, -187500.015625, 162413.015625, 0.010000000707805157, 0.4620000123977661, 0.15400001406669617, 192.0, 0.0, 0.0, 0.0, 0.0, 0.0, 0.0, 0.0, 0.0, 0.0, 1.616661321641865E9, 2021-03-25 11:35:21.641
4.0, 118806.828125, 118775.7109375, -187500.015625, 118867.734375, 118893.8671875, 118838.6796875, 118816.5234375, 118723.5625, -187500.015625, 162316.5, -187500.015625, -187500.015625, 162458.46875, 162389.4375, -187500.015625, 162393.484375, 0.010000000707805157, 0.4620000123977661, 0.15400001406669617, 192.0, 0.0, 0.0, 0.0, 0.0, 0.0, 0.0, 0.0, 0.0, 0.0, 1.6166613216418695E9, 2021-03-25 11:35:21.641
6.0, 118760.203125, 118729.265625, -187500.015625, 118821.2421875, 118847.3515625, 118792.140625, 118769.96875, 118677.078125, -187500.015625, 162297.640625, -187500.015625, -187500.015625, 162439.546875, 162370.625, -187500.015625, 162374.59375, 0.012000000569969416, 0.581000030040741, 0.19200000911951065, 192.0, 0.0, 56.0, 10.5, 112.0, 3.5, 24.0, 0.0, 0.0, 0.0, 1.6166613216418736E9, 2021-03-25 11:35:21.641
8.0, 118753.765625, 118722.828125, -187500.015625, 118814.71875, 118841.046875, 118785.7265625, 118763.6015625, 118670.5703125, -187500.015625, 162277.140625, -187500.015625, -187500.015625, 162418.984375, 162350.03125, -187500.015625, 162354.03125, 0.012000000569969416, 0.581000030040741, 0.19200000911951065, 192.0, 0.0, 0.0, 0.0, 0.0, 0.0, 0.0, 0.0, 0.0, 0.0, 1.616661321641878E9, 2021-03-25 11:35:21.641
10.0, 118636.1484375, 118605.015625, -187500.015625, 118696.8984375, 118723.34375, 118668.0, 118645.8515625, 118552.9296875, -187500.015625, 162256.765625, -187500.015625, -187500.015625, 162398.734375, 162329.828125, -187500.015625, 162333.765625, 0.012000000569969416, 0.581000030040741, 0.19200000911951065, 192.0, 0.0, 0.0, 0.0, 0.0, 0.0, 0.0, 0.0, 0.0, 0.0, 1.6166613216418817E9, 2021-03-25 11:35:21.641
12.0, 118656.4921875, 118625.4453125, -187500.015625, 118717.2890625, 118743.546875, 118688.40625, 118666.1640625, 118573.2734375, -187500.015625, 162234.984375, -187500.015625, -187500.015625, 162376.859375, 162307.90625, -187500.015625, 162311.796875, 0.012000000569969416, 0.581000030040741, 0.19200000911951065, 192.0, 0.0, 0.0, 0.0, 0.0, 0.0, 0.0, 0.0, 0.0, 0.0, 1.616661321641886E9, 2021-03-25 11:35:21.641
14.0, 118559.078125, 118528.1015625, -187500.015625, 118619.875, 118646.1875, 118590.9765625, 118568.734375, 118475.953125, -187500.015625, 162213.84375, -187500.015625, -187500.015625, 162355.734375, 162286.75, -187500.015625, 162290.640625, 0.012000000569969416, 0.581000030040741, 0.19200000911951065, 192.0, 0.0, 0.0, 0.0, 0.0, 0.0, 0.0, 0.0, 0.0, 0.0, 1.61666132164189E9, 2021-03-25 11:35:21.641
16.0, 118510.4453125, 118479.375, -187500.015625, 118571.21875, 118597.6171875, 118542.2265625, 118520.078125, 118427.3828125, -187500.015625, 162193.375, -187500.015625, -187500.015625, 162335.328125, 162266.4375, -187500.015625, 162270.390625, 0.016000000992789865, 0.6975000202655792, 0.23000000789761543, 192.0, 0.0, 80.0, 12.5, 56.0, 4.0, 48.0, 0.0, 0.0, 0.0, 1.616661321641894E9, 2021-03-25 11:35:21.641
18.0, 118504.9921875, 118473.7890625, -187500.015625, 118565.6953125, 118592.09375, 118536.8203125, 118514.6640625, 118421.8828125, -187500.015625, 162172.96875, -187500.015625, -187500.015625, 162314.828125, 162245.984375, -187500.015625, 162249.875, 0.016000000992789865, 0.6975000202655792, 0.23000000789761543, 192.0, 0.0, 0.0, 0.0, 0.0, 0.0, 0.0, 0.0, 0.0, 0.0, 1.6166613216418982E9, 2021-03-25 11:35:21.641
20.0, 118385.3359375, 118354.203125, -187500.015625, 118446.0703125, 118472.4453125, 118417.1875, 118395.015625, 118302.3671875, -187500.015625, 162150.59375, -187500.015625, -187500.015625, 162292.546875, 162223.59375, -187500.015625, 162227.5, 0.016000000992789865, 0.6975000202655792, 0.23000000789761543, 192.0, 0.0, 0.0, 0.0, 0.0, 0.0, 0.0, 0.0, 0.0, 0.0, 1.6166613216419024E9, 2021-03-25 11:35:21.641
22.0, 118408.8125, 118377.7421875, -187500.015625, 118469.46875, 118495.9140625, 118440.7265625, 118418.484375, 118325.859375, -187500.015625, 162128.953125, -187500.015625, -187500.015625, 162270.84375, 162202.0, -187500.015625, 162205.734375, 0.016000000992789865, 0.6975000202655792, 0.23000000789761543, 192.0, 0.0, 0.0, 0.0, 0.0, 0.0, 0.0, 0.0, 0.0, 0.0, 1.6166613216419065E9, 2021-03-25 11:35:21.641
24.0, 118312.4921875, 118281.25, -187500.015625, 118373.0703125, 118399.5546875, 118344.28125, 118322.0859375, 118229.484375, -187500.015625, 162110.09375, -187500.015625, -187500.015625, 162251.9375, 162183.203125, -187500.015625, 162186.984375, 0.016000000992789865, 0.6975000202655792, 0.23000000789761543, 192.0, 0.0, 0.0, 0.0, 0.0, 0.0, 0.0, 0.0, 0.0, 0.0, 1.6166613216419106E9, 2021-03-25 11:35:21.641
26.0, 118262.4296875, 118231.1796875, -187500.015625, 118322.9375, 118349.421875, 118294.2578125, 118271.953125, 118179.390625, -187500.015625, 162087.578125, -187500.015625, -187500.015625, 162229.515625, 162160.6875, -187500.015625, 162164.515625, 0.02000000060070306, 0.7827500253915787, 0.2560000065714121, 192.0, 0.0, 96.0, 13.5, 16.0, 4.0, 104.0, 0.0, 0.0, 0.0, 1.6166613216419146E9, 2021-03-25 11:35:21.641
28.0, 118260.0390625, 118228.8359375, -187500.015625, 118320.4765625, 118347.0703125, 118291.90625, 118269.6015625, 118176.953125, -187500.015625, 162066.90625, -187500.015625, -187500.015625, 162208.890625, 162140.0625, -187500.015625, 162143.890625, 0.02000000060070306, 0.7827500253915787, 0.2560000065714121, 192.0, 0.0, 0.0, 0.0, 0.0, 0.0, 0.0, 0.0, 0.0, 0.0, 1.616661321641919E9, 2021-03-25 11:35:21.641
30.0, 118142.1328125, 118110.96875, -187500.015625, 118202.59375, 118229.125, 118174.0234375, 118151.6484375, 118059.09375, -187500.015625, 162046.90625, -187500.015625, -187500.015625, 162188.90625, 162120.03125, -187500.015625, 162123.875, 0.02000000060070306, 0.7827500253915787, 0.2560000065714121, 192.0, 0.0, 0.0, 0.0, 0.0, 0.0, 0.0, 0.0, 0.0, 0.0, 1.6166613216419227E9, 2021-03-25 11:35:21.641
32.0, 118165.5078125, 118134.328125, -187500.015625, 118225.9921875, 118252.546875, 118197.4296875, 118175.1015625, 118082.4921875, -187500.015625, 162025.625, -187500.015625, -187500.015625, 162167.515625, 162098.75, -187500.015625, 162102.40625, 0.02000000060070306, 0.7827500253915787, 0.2560000065714121, 192.0, 0.0, 0.0, 0.0, 0.0, 0.0, 0.0, 0.0, 0.0, 0.0, 1.6166613216419268E9, 2021-03-25 11:35:21.641
34.0, 118072.328125, 118041.0078125, -187500.015625, 118132.671875, 118159.25, 118104.0625, 118081.7109375, 117989.3359375, -187500.015625, 162007.453125, -187500.015625, -187500.015625, 162149.265625, 162080.5, -187500.015625, 162084.140625, 0.02000000060070306, 0.7827500253915787, 0.2560000065714121, 192.0, 0.0, 0.0, 0.0, 0.0, 0.0, 0.0, 0.0, 0.0, 0.0, 1.616661321641935E9, 2021-03-25 11:35:21.641
36.0, 118020.203125, 117988.90625, -187500.015625, 118080.5078125, 118107.1015625, 118052.09375, 118029.6796875, 117937.3203125, -187500.015625, 161984.109375, -187500.015625, -187500.015625, 162126.15625, 162057.3125, -187500.015625, 162060.953125, 0.02100000117206946, 0.8413750305771828, 0.27900001127272844, 192.0, 0.0, 88.0, 14.0, 16.0, 4.5, 56.0, 0.0, 0.0, 0.0, 1.6166613216419392E9, 2021-03-25 11:35:21.641
38.0, 118020.515625, 117989.265625, -187500.015625, 118080.8203125, 118107.375, 118052.4296875, 118029.9453125, 117937.65625, -187500.015625, 161963.75, -187500.015625, -187500.015625, 162105.578125, 162036.8125, -187500.015625, 162040.53125, 0.02100000117206946, 0.8413750305771828, 0.27900001127272844, 192.0, 0.0, 0.0, 0.0, 0.0, 0.0, 0.0, 0.0, 0.0, 0.0, 1.6166613216419432E9, 2021-03-25 11:35:21.641
40.0, 117902.453125, 117871.1171875, -187500.015625, 117962.78125, 117989.359375, 117934.3515625, 117911.8828125, 117819.640625, -187500.015625, 161942.359375, -187500.015625, -187500.015625, 162084.296875, 162015.515625, -187500.015625, 162019.234375, 0.02100000117206946, 0.8413750305771828, 0.27900001127272844, 192.0, 0.0, 0.0, 0.0, 0.0, 0.0, 0.0, 0.0, 0.0, 0.0, 1.6166613216419475E9, 2021-03-25 11:35:21.641
42.0, 117921.8515625, 117890.5625, -187500.015625, 117982.203125, 118008.828125, 117953.7265625, 117931.328125, 117839.0390625, -187500.015625, 161919.875, -187500.015625, -187500.015625, 162061.71875, 161993.03125, -187500.015625, 161996.71875, 0.02100000117206946, 0.8413750305771828, 0.27900001127272844, 192.0, 0.0, 0.0, 0.0, 0.0, 0.0, 0.0, 0.0, 0.0, 0.0, 1.6166613216419513E9, 2021-03-25 11:35:21.641
44.0, 117832.421875, 117801.109375, -187500.015625, 117892.7265625, 117919.21875, 117864.296875, 117841.8125, 117749.65625, -187500.015625, 161897.34375, -187500.015625, -187500.015625, 162039.296875, 161970.5, -187500.015625, 161974.171875, 0.02100000117206946, 0.8413750305771828, 0.27900001127272844, 192.0, 0.0, 0.0, 0.0, 0.0, 0.0, 0.0, 0.0, 0.0, 0.0, 1.6166613216419568E9, 2021-03-25 11:35:21.641
46.0, 117779.4765625, 117748.046875, -187500.015625, 117839.640625, 117866.265625, 117811.2578125, 117788.8359375, 117696.640625, -187500.015625, 161878.5625, -187500.015625, -187500.015625, 162020.546875, 161951.8125, -187500.015625, 161955.53125, 0.02250000069034286, 0.8796875365078449, 0.2935000197030604, 192.0, 0.0, 96.0, 14.0, 88.0, 4.5, 80.0, 0.0, 0.0, 0.0, 1.616661321641961E9, 2021-03-25 11:35:21.641
48.0, 117781.6640625, 117750.234375, -187500.015625, 117841.7890625, 117868.453125, 117813.421875, 117791.0078125, 117698.8515625, -187500.015625, 161855.453125, -187500.015625, -187500.015625, 161997.34375, 161928.59375, -187500.015625, 161932.28125, 0.02250000069034286, 0.8796875365078449, 0.2935000197030604, 192.0, 0.0, 0.0, 0.0, 0.0, 0.0, 0.0, 0.0, 0.0, 0.0, 1.6166613216419652E9, 2021-03-25 11:35:21.641
50.0, 117666.6171875, 117635.171875, -187500.015625, 117726.765625, 117753.3203125, 117698.3359375, 117675.875, 117583.8046875, -187500.015625, 161835.90625, -187500.015625, -187500.015625, 161977.828125, 161909.1875, -187500.015625, 161912.75, 0.02250000069034286, 0.8796875365078449, 0.2935000197030604, 192.0, 0.0, 0.0, 0.0, 0.0, 0.0, 0.0, 0.0, 0.0, 0.0, 1.6166613216419692E9, 2021-03-25 11:35:21.641
52.0, 117691.140625, 117659.734375, -187500.015625, 117751.3125, 117778.0, 117723.015625, 117700.484375, 117608.3671875, -187500.015625, 161817.734375, -187500.015625, -187500.015625, 161959.6875, 161891.0, -187500.015625, 161894.546875, 0.02250000069034286, 0.8796875365078449, 0.2935000197030604, 192.0, 0.0, 0.0, 0.0, 0.0, 0.0, 0.0, 0.0, 0.0, 0.0, 1.6166613216419733E9, 2021-03-25 11:35:21.641
54.0, 117600.28125, 117568.8984375, -187500.015625, 117660.359375, 117687.0703125, 117632.15625, 117609.53125, 117517.625, -187500.015625, 161797.765625, -187500.015625, -187500.015625, 161939.75, 161871.0, -187500.015625, 161874.59375, 0.02250000069034286, 0.8796875365078449, 0.2935000197030604, 192.0, 0.0, 0.0, 0.0, 0.0, 0.0, 0.0, 0.0, 0.0, 0.0, 1.6166613216419773E9, 2021-03-25 11:35:21.641
56.0, 117547.28125, 117515.859375, -187500.015625, 117607.3671875, 117634.0078125, 117579.1328125, 117556.5625, 117464.671875, -187500.015625, 161774.609375, -187500.015625, -187500.015625, 161916.609375, 161847.8125, -187500.015625, 161851.484375, 0.021250001052976586, 0.9018437806516886, 0.3017500110436231, 192.0, 0.0, 80.0, 14.0, 112.0, 4.5, 88.0, 0.0, 0.0, 0.0, 1.6166613216419814E9, 2021-03-25 11:35:21.641
58.0, 117550.4765625, 117518.984375, -187500.015625, 117610.46875, 117637.1796875, 117582.1953125, 117559.734375, 117467.7109375, -187500.015625, 161754.1875, -187500.015625, -187500.015625, 161896.09375, 161827.296875, -187500.015625, 161830.890625, 0.021250001052976586, 0.9018437806516886, 0.3017500110436231, 192.0, 0.0, 0.0, 0.0, 0.0, 0.0, 0.0, 0.0, 0.0, 0.0, 1.6166613216419857E9, 2021-03-25 11:35:21.641
60.0, 117437.2265625, 117405.7265625, -187500.015625, 117497.1953125, 117523.9453125, 117468.921875, 117446.453125, 117354.546875, -187500.015625, 161733.9375, -187500.015625, -187500.015625, 161876.015625, 161807.25, -187500.015625, 161810.796875, 0.021250001052976586, 0.9018437806516886, 0.3017500110436231, 192.0, 0.0, 0.0, 0.0, 0.0, 0.0, 0.0, 0.0, 0.0, 0.0, 1.61666132164199E9, 2021-03-25 11:35:21.641
62.0, 117457.34375, 117425.8203125, -187500.015625, 117517.265625, 117544.0, 117489.1015625, 117466.5234375, 117374.6171875, -187500.015625, 161714.859375, -187500.015625, -187500.015625, 161856.953125, 161788.140625, -187500.015625, 161791.6875, 0.021250001052976586, 0.9018437806516886, 0.3017500110436231, 192.0, 0.0, 0.0, 0.0, 0.0, 0.0, 0.0, 0.0, 0.0, 0.0, 1.616661321641994E9, 2021-03-25 11:35:21.641
64.0, 117371.8671875, 117340.3515625, -187500.015625, 117431.75, 117458.6171875, 117403.609375, 117381.03125, 117289.2734375, -187500.015625, 161694.453125, -187500.015625, -187500.015625, 161836.4375, 161767.65625, -187500.015625, 161771.234375, 0.021250001052976586, 0.9018437806516886, 0.3017500110436231, 192.0, 0.0, 0.0, 0.0, 0.0, 0.0, 0.0, 0.0, 0.0, 0.0, 1.616661321641998E9, 2021-03-25 11:35:21.641
66.0, 117316.453125, 117284.828125, -187500.015625, 117376.2890625, 117403.2265625, 117348.171875, 117325.5078125, 117233.890625, -187500.015625, 161672.3125, -187500.015625, -187500.015625, 161814.3125, 161745.546875, -187500.015625, 161749.015625, 0.02062500123429345, 0.9139219196513295, 0.30287501553539187, 192.0, 0.0, 80.0, 14.0, 120.0, 4.5, 64.0, 0.0, 0.0, 0.0, 1.616661321642002E9, 2021-03-25 11:35:21.642
68.0, 117322.7578125, 117291.109375, -187500.015625, 117382.6171875, 117409.3984375, 117354.4765625, 117331.8984375, 117240.1953125, -187500.015625, 161651.984375, -187500.015625, -187500.015625, 161793.796875, 161725.140625, -187500.015625, 161728.5625, 0.02062500123429345, 0.9139219196513295, 0.30287501553539187, 192.0, 0.0, 0.0, 0.0, 0.0, 0.0, 0.0, 0.0, 0.0, 0.0, 1.6166613216420074E9, 2021-03-25 11:35:21.642
70.0, 117205.1640625, 117173.4921875, -187500.015625, 117264.9375, 117291.734375, 117236.796875, 117214.265625, 117122.6875, -187500.015625, 161630.15625, -187500.015625, -187500.015625, 161772.015625, 161703.40625, -187500.015625, 161706.8125, 0.02062500123429345, 0.9139219196513295, 0.30287501553539187, 192.0, 0.0, 0.0, 0.0, 0.0, 0.0, 0.0, 0.0, 0.0, 0.0, 1.6166613216420116E9, 2021-03-25 11:35:21.642
72.0, 117227.2265625, 117195.6484375, -187500.015625, 117286.9765625, 117313.90625, 117258.9921875, 117236.3671875, 117144.6640625, -187500.015625, 161610.6875, -187500.015625, -187500.015625, 161752.59375, 161683.953125, -187500.015625, 161687.34375, 0.02062500123429345, 0.9139219196513295, 0.30287501553539187, 192.0, 0.0, 0.0, 0.0, 0.0, 0.0, 0.0, 0.0, 0.0, 0.0, 1.6166613216420157E9, 2021-03-25 11:35:21.642
74.0, 117143.09375, 117111.46875, -187500.015625, 117202.890625, 117229.6875, 117174.8125, 117152.28125, 117060.6640625, -187500.015625, 161590.40625, -187500.015625, -187500.015625, 161732.234375, 161663.71875, -187500.015625, 161667.03125, 0.02062500123429345, 0.9139219196513295, 0.30287501553539187, 192.0, 0.0, 0.0, 0.0, 0.0, 0.0, 0.0, 0.0, 0.0, 0.0, 1.6166613216420195E9, 2021-03-25 11:35:21.642
76.0, 117085.0234375, 117053.3359375, -187500.015625, 117144.8203125, 117171.59375, 117116.859375, 117094.1875, 117002.640625, -187500.015625, 161568.859375, -187500.015625, -187500.015625, 161710.75, 161642.203125, -187500.015625, 161645.546875, 0.018312500997126335, 0.9209609762765467, 0.3044375198078342, 192.0, 0.0, 64.0, 14.5, 0.0, 4.5, 72.0, 0.0, 0.0, 0.0, 1.6166613216420236E9, 2021-03-25 11:35:21.642
78.0, 117091.890625, 117060.21875, -187500.015625, 117151.65625, 117178.4765625, 117123.6484375, 117101.03125, 117009.4296875, -187500.015625, 161546.0625, -187500.015625, -187500.015625, 161687.859375, 161619.3125, -187500.015625, 161622.625, 0.018312500997126335, 0.9209609762765467, 0.3044375198078342, 192.0, 0.0, 0.0, 0.0, 0.0, 0.0, 0.0, 0.0, 0.0, 0.0, 1.6166613216420279E9, 2021-03-25 11:35:21.642
80.0, 116974.9453125, 116943.1796875, -187500.015625, 117034.625, 117061.46875, 117006.75, 116984.0390625, 116892.4921875, -187500.015625, 161526.28125, -187500.015625, -187500.015625, 161668.171875, 161599.515625, -187500.015625, 161602.90625, 0.018312500997126335, 0.9209609762765467, 0.3044375198078342, 192.0, 0.0, 0.0, 0.0, 0.0, 0.0, 0.0, 0.0, 0.0, 0.0, 1.616661321642032E9, 2021-03-25 11:35:21.642
82.0, 116997.6953125, 116965.9375, -187500.015625, 117057.265625, 117084.203125, 117029.484375, 117006.6875, 116915.2421875, -187500.015625, 161505.921875, -187500.015625, -187500.015625, 161647.90625, 161579.234375, -187500.015625, 161582.5625, 0.018312500997126335, 0.9209609762765467, 0.3044375198078342, 192.0, 0.0, 0.0, 0.0, 0.0, 0.0, 0.0, 0.0, 0.0, 0.0, 1.616661321642036E9, 2021-03-25 11:35:21.642
84.0, 116913.4140625, 116881.71875, -187500.015625, 116973.046875, 116999.8671875, 116945.2578125, 116922.375, 116831.109375, -187500.015625, 161487.078125, -187500.015625, -187500.015625, 161629.0625, 161560.4375, -187500.015625, 161563.71875, 0.018312500997126335, 0.9209609762765467, 0.3044375198078342, 192.0, 0.0, 0.0, 0.0, 0.0, 0.0, 0.0, 0.0, 0.0, 0.0, 1.61666132164204E9, 2021-03-25 11:35:21.642
86.0, 116857.6640625, 116825.90625, -187500.015625, 116917.234375, 116944.078125, 116889.4921875, 116866.6484375, 116775.3671875, -187500.015625, 161466.046875, -187500.015625, -187500.015625, 161607.9375, 161539.359375, -187500.015625, 161542.6875, 0.017156250878542778, 0.9244805045891553, 0.30521877194405533, 192.0, 0.0, 64.0, 14.5, 0.0, 4.5, 72.0, 0.0, 0.0, 0.0, 1.616661321642044E9, 2021-03-25 11:35:21.642
88.0, 116867.140625, 116835.421875, -187500.015625, 116926.7109375, 116953.7109375, 116898.96875, 116876.125, 116784.9296875, -187500.015625, 161446.359375, -187500.015625, -187500.015625, 161588.15625, 161519.59375, -187500.015625, 161522.90625, 0.017156250878542778, 0.9244805045891553, 0.30521877194405533, 192.0, 0.0, 0.0, 0.0, 0.0, 0.0, 0.0, 0.0, 0.0, 0.0, 1.616661321642048E9, 2021-03-25 11:35:21.642
90.0, 116750.3984375, 116718.65625, -187500.015625, 116809.921875, 116836.8359375, 116782.25, 116759.3828125, 116668.1640625, -187500.015625, 161427.15625, -187500.015625, -187500.015625, 161569.125, 161500.53125, -187500.015625, 161503.84375, 0.017156250878542778, 0.9244805045891553, 0.30521877194405533, 192.0, 0.0, 0.0, 0.0, 0.0, 0.0, 0.0, 0.0, 0.0, 0.0, 1.6166613216420522E9, 2021-03-25 11:35:21.642
92.0, 116767.8125, 116735.9375, -187500.015625, 116827.3125, 116854.265625, 116799.6640625, 116776.7734375, 116685.53125, -187500.015625, 161405.46875, -187500.015625, -187500.015625, 161547.421875, 161478.828125, -187500.015625, 161482.140625, 0.017156250878542778, 0.9244805045891553, 0.30521877194405533, 192.0, 0.0, 0.0, 0.0, 0.0, 0.0, 0.0, 0.0, 0.0, 0.0, 1.6166613216420565E9, 2021-03-25 11:35:21.642
94.0, 116682.5859375, 116650.6875, -187500.015625, 116742.015625, 116769.0625, 116714.4375, 116691.5, 116600.28125, -187500.015625, 161383.953125, -187500.015625, -187500.015625, 161525.8125, 161457.328125, -187500.015625, 161460.609375, 0.017156250878542778, 0.9244805045891553, 0.30521877194405533, 192.0, 0.0, 0.0, 0.0, 0.0, 0.0, 0.0, 0.0, 0.0, 0.0, 1.6166613216420605E9, 2021-03-25 11:35:21.642
96.0, 116623.84375, 116592.0390625, -187500.015625, 116683.2734375, 116710.28125, 116655.6953125, 116632.78125, 116541.6328125, -187500.015625, 161358.6875, -187500.015625, -187500.015625, 161500.71875, 161432.109375, -187500.015625, 161435.265625, 0.017578125983163773, 0.9262402687454596, 0.30660940003872383, 192.0, 0.0, 72.0, 14.5, 0.0, 4.5, 80.0, 0.0, 0.0, 0.0, 1.6166613216420646E9, 2021-03-25 11:35:21.642
98.0, 116631.109375, 116599.2109375, -187500.015625, 116690.5859375, 116717.5, 116662.8671875, 116640.046875, 116548.9453125, -187500.015625, 161338.953125, -187500.015625, -187500.015625, 161480.859375, 161412.3125, -187500.015625, 161415.515625, 0.017578125983163773, 0.9262402687454596, 0.30660940003872383, 192.0, 0.0, 0.0, 0.0, 0.0, 0.0, 0.0, 0.0, 0.0, 0.0, 1.6166613216420689E9, 2021-03-25 11:35:21.642
100.0, 116512.21875, 116480.296875, -187500.015625, 116571.6484375, 116598.65625, 116544.046875, 116521.1171875, 116430.140625, -187500.015625, 161317.03125, -187500.015625, -187500.015625, 161459.0, 161390.515625, -187500.015625, 161393.625, 0.017578125983163773, 0.9262402687454596, 0.30660940003872383, 192.0, 0.0, 0.0, 0.0, 0.0, 0.0, 0.0, 0.0, 0.0, 0.0, 1.616661321642073E9, 2021-03-25 11:35:21.642
102.0, 116527.8671875, 116495.9921875, -187500.015625, 116587.296875, 116614.2578125, 116559.71875, 116536.71875, 116445.703125, -187500.015625, 161293.671875, -187500.015625, -187500.015625, 161435.625, 161367.140625, -187500.015625, 161370.3125, 0.017578125983163773, 0.9262402687454596, 0.30660940003872383, 192.0, 0.0, 0.0, 0.0, 0.0, 0.0, 0.0, 0.0, 0.0, 0.0, 1.616661321642078E9, 2021-03-25 11:35:21.642
104.0, 116448.1171875, 116416.2890625, -187500.015625, 116507.546875, 116534.546875, 116479.96875, 116457.078125, 116366.015625, -187500.015625, 161273.640625, -187500.015625, -187500.015625, 161415.578125, 161347.0625, -187500.015625, 161350.171875, 0.017578125983163773, 0.9262402687454596, 0.30660940003872383, 192.0, 0.0, 0.0, 0.0, 0.0, 0.0, 0.0, 0.0, 0.0, 0.0, 1.616661321642082E9, 2021-03-25 11:35:21.642
106.0, 116390.1796875, 116358.078125, -187500.015625, 116449.4296875, 116476.453125, 116421.9375, 116398.9609375, 116307.9453125, -187500.015625, 161254.828125, -187500.015625, -187500.015625, 161396.890625, 161328.359375, -187500.015625, 161331.53125, 0.015789063207648724, 0.9281201677513309, 0.3043047080063843, 192.0, 0.0, 56.0, 14.5, 8.0, 4.5, 56.0, 0.0, 0.0, 0.0, 1.6166613216420872E9, 2021-03-25 11:35:21.642
108.0, 116398.71875, 116366.7734375, -187500.015625, 116458.0625, 116484.96875, 116430.5703125, 116407.546875, 116316.6875, -187500.015625, 161234.75, -187500.015625, -187500.015625, 161376.640625, 161308.203125, -187500.015625, 161311.296875, 0.015789063207648724, 0.9281201677513309, 0.3043047080063843, 192.0, 0.0, 0.0, 0.0, 0.0, 0.0, 0.0, 0.0, 0.0, 0.0, 1.6166613216420915E9, 2021-03-25 11:35:21.642
110.0, 116281.015625, 116249.0703125, -187500.015625, 116340.3359375, 116367.2890625, 116312.8828125, 116289.796875, 116199.0234375, -187500.015625, 161214.046875, -187500.015625, -187500.015625, 161355.921875, 161287.65625, -187500.015625, 161290.765625, 0.015789063207648724, 0.9281201677513309, 0.3043047080063843, 192.0, 0.0, 0.0, 0.0, 0.0, 0.0, 0.0, 0.0, 0.0, 0.0, 1.616661321642096E9, 2021-03-25 11:35:21.642
112.0, 116295.6953125, 116263.734375, -187500.015625, 116354.953125, 116381.9296875, 116327.5703125, 116304.5234375, 116213.6875, -187500.015625, 161192.609375, -187500.015625, -187500.015625, 161334.5, 161266.21875, -187500.015625, 161269.1875, 0.015789063207648724, 0.9281201677513309, 0.3043047080063843, 192.0, 0.0, 0.0, 0.0, 0.0, 0.0, 0.0, 0.0, 0.0, 0.0, 1.6166613216421E9, 2021-03-25 11:35:21.642
114.0, 116216.4375, 116184.4296875, -187500.015625, 116275.6015625, 116302.671875, 116248.265625, 116225.2890625, 116134.515625, -187500.015625, 161172.875, -187500.015625, -187500.015625, 161314.765625, 161246.390625, -187500.015625, 161249.484375, 0.015789063207648724, 0.9281201677513309, 0.3043047080063843, 192.0, 0.0, 0.0, 0.0, 0.0, 0.0, 0.0, 0.0, 0.0, 0.0, 1.616661321642104E9, 2021-03-25 11:35:21.642
116.0, 116154.96875, 116122.8984375, -187500.015625, 116214.0703125, 116241.140625, 116186.796875, 116163.734375, 116073.09375, -187500.015625, 161151.4375, -187500.015625, -187500.015625, 161293.375, 161225.046875, -187500.015625, 161227.984375, 0.015894531983803972, 0.9280601003265474, 0.3041523640167725, 192.0, 0.0, 64.0, 14.5, 0.0, 4.5, 64.0, 0.0, 0.0, 0.0, 1.616661321642108E9, 2021-03-25 11:35:21.642
118.0, 116160.2421875, 116128.1953125, -187500.015625, 116219.3671875, 116246.4140625, 116192.140625, 116169.03125, 116078.328125, -187500.015625, 161129.875, -187500.015625, -187500.015625, 161271.765625, 161203.453125, -187500.015625, 161206.5, 0.015894531983803972, 0.9280601003265474, 0.3041523640167725, 192.0, 0.0, 0.0, 0.0, 0.0, 0.0, 0.0, 0.0, 0.0, 0.0, 1.6166613216421125E9, 2021-03-25 11:35:21.642
120.0, 116045.578125, 116013.484375, -187500.015625, 116104.7265625, 116131.7890625, 116077.4296875, 116054.34375, 115963.75, -187500.015625, 161107.71875, -187500.015625, -187500.015625, 161249.609375, 161181.1875, -187500.015625, 161184.28125, 0.015894531983803972, 0.9280601003265474, 0.3041523640167725, 192.0, 0.0, 0.0, 0.0, 0.0, 0.0, 0.0, 0.0, 0.0, 0.0, 1.61666132212215E9, 2021-03-25 11:35:22.122
122.0, 116060.515625, 116028.59375, -187500.015625, 116119.703125, 116146.7890625, 116092.3828125, 116069.3671875, 115978.8359375, -187500.015625, 161091.609375, -187500.015625, -187500.015625, 161233.5, 161165.171875, -187500.015625, 161168.140625, 0.015894531983803972, 0.9280601003265474, 0.3041523640167725, 192.0, 0.0, 0.0, 0.0, 0.0, 0.0, 0.0, 0.0, 0.0, 0.0, 1.6166613221222453E9, 2021-03-25 11:35:22.122
124.0, 115979.640625, 115947.65625, -187500.015625, 116038.7421875, 116065.96875, 116011.4765625, 115988.4921875, 115897.96875, -187500.015625, 161069.0625, -187500.015625, -187500.015625, 161210.921875, 161142.6875, -187500.015625, 161145.515625, 0.015894531983803972, 0.9280601003265474, 0.3041523640167725, 192.0, 0.0, 0.0, 0.0, 0.0, 0.0, 0.0, 0.0, 0.0, 0.0, 1.6166613221222496E9, 2021-03-25 11:35:22.122
126.0, 115917.390625, 115885.34375, -187500.015625, 115976.4921875, 116003.625, 115949.2265625, 115926.0703125, 115835.6796875, -187500.015625, 161048.5625, -187500.015625, -187500.015625, 161190.5, 161122.234375, -187500.015625, 161125.09375, 0.01694726653579437, 0.9300300706672715, 0.3000761839157349, 192.0, 0.0, 72.0, 14.5, 16.0, 4.5, 32.0, 0.0, 0.0, 0.0, 1.6166613221222544E9, 2021-03-25 11:35:22.122
128.0, 115926.6484375, 115894.5078125, -187500.015625, 115985.6328125, 116012.765625, 115958.40625, 115935.34375, 115844.90625, -187500.015625, 161029.0625, -187500.015625, -187500.015625, 161170.90625, 161102.46875, -187500.015625, 161105.484375, 0.01694726653579437, 0.9300300706672715, 0.3000761839157349, 192.0, 0.0, 0.0, 0.0, 0.0, 0.0, 0.0, 0.0, 0.0, 0.0, 1.6166613221222594E9, 2021-03-25 11:35:22.122
130.0, 115806.7734375, 115774.703125, -187500.015625, 115865.765625, 115892.921875, 115838.671875, 115815.4921875, 115725.1953125, -187500.015625, 161007.765625, -187500.015625, -187500.015625, 161149.703125, 161081.34375, -187500.015625, 161084.296875, 0.01694726653579437, 0.9300300706672715, 0.3000761839157349, 192.0, 0.0, 0.0, 0.0, 0.0, 0.0, 0.0, 0.0, 0.0, 0.0, 1.6166613221222637E9, 2021-03-25 11:35:22.122
132.0, 115818.2890625, 115786.1875, -187500.015625, 115877.296875, 115904.40625, 115850.2265625, 115826.984375, 115736.703125, -187500.015625, 160985.78125, -187500.015625, -187500.015625, 161127.625, 161059.3125, -187500.015625, 161062.28125, 0.01694726653579437, 0.9300300706672715, 0.3000761839157349, 192.0, 0.0, 0.0, 0.0, 0.0, 0.0, 0.0, 0.0, 0.0, 0.0, 1.616661322122268E9, 2021-03-25 11:35:22.122
134.0, 115740.796875, 115708.671875, -187500.015625, 115799.6875, 115826.9609375, 115772.6875, 115749.3984375, 115659.234375, -187500.015625, 160967.3125, -187500.015625, -187500.015625, 161109.140625, 161040.9375, -187500.015625, 161043.84375, 0.01694726653579437, 0.9300300706672715, 0.3000761839157349, 192.0, 0.0, 0.0, 0.0, 0.0, 0.0, 0.0, 0.0, 0.0, 0.0, 1.6166613221222725E9, 2021-03-25 11:35:22.122
136.0, 115672.4453125, 115640.3203125, -187500.015625, 115731.3125, 115758.4921875, 115704.203125, 115681.046875, 115590.8828125, -187500.015625, 160942.75, -187500.015625, -187500.015625, 161084.75, 161016.46875, -187500.015625, 161019.328125, 0.019473634139615115, 0.9310150558376336, 0.30103809994488984, 192.0, 0.0, 88.0, 14.5, 16.0, 4.5, 56.0, 0.0, 0.0, 0.0, 1.6166613221222768E9, 2021-03-25 11:35:22.122
138.0, 115683.28125, 115651.0546875, -187500.015625, 115742.0703125, 115769.359375, 115715.0859375, 115691.8203125, 115601.7421875, -187500.015625, 160923.140625, -187500.015625, -187500.015625, 161065.078125, 160996.84375, -187500.015625, 160999.671875, 0.019473634139615115, 0.9310150558376336, 0.30103809994488984, 192.0, 0.0, 0.0, 0.0, 0.0, 0.0, 0.0, 0.0, 0.0, 0.0, 1.6166613221222847E9, 2021-03-25 11:35:22.122
140.0, 115563.453125, 115531.2421875, -187500.015625, 115622.265625, 115649.484375, 115595.3984375, 115572.1015625, 115482.0703125, -187500.015625, 160902.84375, -187500.015625, -187500.015625, 161044.828125, 160976.5, -187500.015625, 160979.40625, 0.019473634139615115, 0.9310150558376336, 0.30103809994488984, 192.0, 0.0, 0.0, 0.0, 0.0, 0.0, 0.0, 0.0, 0.0, 0.0, 1.6166613221222897E9, 2021-03-25 11:35:22.122
142.0, 115573.0, 115540.703125, -187500.015625, 115631.71875, 115659.0546875, 115604.8984375, 115581.5625, 115491.484375, -187500.015625, 160881.765625, -187500.015625, -187500.015625, 161023.6875, 160955.4375, -187500.015625, 160958.28125, 0.019473634139615115, 0.9310150558376336, 0.30103809994488984, 192.0, 0.0, 0.0, 0.0, 0.0, 0.0, 0.0, 0.0, 0.0, 0.0, 1.6166613221222942E9, 2021-03-25 11:35:22.122
144.0, 115495.7734375, 115463.5390625, -187500.015625, 115554.4921875, 115581.828125, 115527.6015625, 115504.3125, 115414.234375, -187500.015625, 160861.046875, -187500.015625, -187500.015625, 161002.9375, 160934.640625, -187500.015625, 160937.5, 0.019473634139615115, 0.9310150558376336, 0.30103809994488984, 192.0, 0.0, 0.0, 0.0, 0.0, 0.0, 0.0, 0.0, 0.0, 0.0, 1.6166613221222985E9, 2021-03-25 11:35:22.122
146.0, 115425.6328125, 115393.3828125, -187500.015625, 115484.3515625, 115511.6640625, 115457.5078125, 115434.21875, 115344.2734375, -187500.015625, 160838.15625, -187500.015625, -187500.015625, 160980.140625, 160911.8125, -187500.015625, 160914.65625, 0.017736817449787168, 0.9295075443696987, 0.3055190511645378, 192.0, 0.0, 64.0, 14.5, 0.0, 4.5, 88.0, 0.0, 0.0, 0.0, 1.6166613221223032E9, 2021-03-25 11:35:22.122
148.0, 115434.90625, 115402.609375, -187500.015625, 115493.5390625, 115520.8984375, 115466.8046875, 115443.4921875, 115353.4609375, -187500.015625, 160816.953125, -187500.015625, -187500.015625, 160958.859375, 160890.59375, -187500.015625, 160893.4375, 0.017736817449787168, 0.9295075443696987, 0.3055190511645378, 192.0, 0.0, 0.0, 0.0, 0.0, 0.0, 0.0, 0.0, 0.0, 0.0, 1.6166613221223075E9, 2021-03-25 11:35:22.122
150.0, 115316.0234375, 115283.6796875, -187500.015625, 115374.5390625, 115401.921875, 115347.78125, 115324.5625, 115234.6171875, -187500.015625, 160796.203125, -187500.015625, -187500.015625, 160938.25, 160869.96875, -187500.015625, 160872.78125, 0.017736817449787168, 0.9295075443696987, 0.3055190511645378, 192.0, 0.0, 0.0, 0.0, 0.0, 0.0, 0.0, 0.0, 0.0, 0.0, 1.6166613221223128E9, 2021-03-25 11:35:22.122
152.0, 115324.3359375, 115291.9921875, -187500.015625, 115382.828125, 115410.390625, 115356.1640625, 115332.828125, 115243.0, -187500.015625, 160776.3125, -187500.015625, -187500.015625, 160918.3125, 160850.046875, -187500.015625, 160852.921875, 0.017736817449787168, 0.9295075443696987, 0.3055190511645378, 192.0, 0.0, 0.0, 0.0, 0.0, 0.0, 0.0, 0.0, 0.0, 0.0, 1.6166613221223176E9, 2021-03-25 11:35:22.122
154.0, 115250.421875, 115218.078125, -187500.015625, 115308.9375, 115336.3828125, 115282.3359375, 115258.9375, 115169.0390625, -187500.015625, 160756.640625, -187500.015625, -187500.015625, 160898.515625, 160830.25, -187500.015625, 160833.171875, 0.017736817449787168, 0.9295075443696987, 0.3055190511645378, 192.0, 0.0, 0.0, 0.0, 0.0, 0.0, 0.0, 0.0, 0.0, 0.0, 1.616661322122322E9, 2021-03-25 11:35:22.122
156.0, 115180.4765625, 115148.046875, -187500.015625, 115238.9296875, 115266.3515625, 115212.3046875, 115188.8828125, 115099.1640625, -187500.015625, 160736.34375, -187500.015625, -187500.015625, 160878.3125, 160810.046875, -187500.015625, 160812.96875, 0.016868409104873194, 0.9287537886357313, 0.3067595396489651, 192.0, 0.0, 64.0, 14.5, 0.0, 4.5, 80.0, 0.0, 0.0, 0.0, 1.6166613221223264E9, 2021-03-25 11:35:22.122
158.0, 115187.5234375, 115155.109375, -187500.015625, 115246.015625, 115273.53125, 115219.4375, 115195.9921875, 115106.2734375, -187500.015625, 160713.953125, -187500.015625, -187500.015625, 160855.859375, 160787.640625, -187500.015625, 160790.578125, 0.016868409104873194, 0.9287537886357313, 0.3067595396489651, 192.0, 0.0, 0.0, 0.0, 0.0, 0.0, 0.0, 0.0, 0.0, 0.0, 1.616661322122331E9, 2021-03-25 11:35:22.122
160.0, 115066.3984375, 115033.9609375, -187500.015625, 115124.84375, 115152.40625, 115098.2734375, 115074.84375, 114985.1484375, -187500.015625, 160691.3125, -187500.015625, -187500.015625, 160833.25, 160765.03125, -187500.015625, 160767.796875, 0.016868409104873194, 0.9287537886357313, 0.3067595396489651, 192.0, 0.0, 0.0, 0.0, 0.0, 0.0, 0.0, 0.0, 0.0, 0.0, 1.6166613221223352E9, 2021-03-25 11:35:22.122
162.0, 115075.15625, 115042.6328125, -187500.015625, 115133.5859375, 115160.9921875, 115107.078125, 115083.609375, 114993.90625, -187500.015625, 160669.59375, -187500.015625, -187500.015625, 160811.46875, 160743.390625, -187500.015625, 160746.078125, 0.016868409104873194, 0.9287537886357313, 0.3067595396489651, 192.0, 0.0, 0.0, 0.0, 0.0, 0.0, 0.0, 0.0, 0.0, 0.0, 1.6166613221223395E9, 2021-03-25 11:35:22.122
164.0, 115001.9140625, 114969.59375, -187500.015625, 115060.359375, 115087.828125, 115033.875, 115010.3359375, 114920.7265625, -187500.015625, 160651.90625, -187500.015625, -187500.015625, 160793.65625, 160725.515625, -187500.015625, 160728.234375, 0.016868409104873194, 0.9287537886357313, 0.3067595396489651, 192.0, 0.0, 0.0, 0.0, 0.0, 0.0, 0.0, 0.0, 0.0, 0.0, 1.6166613221223438E9, 2021-03-25 11:35:22.122
166.0, 114932.734375, 114900.3203125, -187500.015625, 114991.140625, 115018.6953125, 114964.671875, 114941.1796875, 114851.640625, -187500.015625, 160630.78125, -187500.015625, -187500.015625, 160772.609375, 160704.4375, -187500.015625, 160707.21875, 0.01743420509632898, 0.9313769019472602, 0.3063797818646208, 192.0, 0.0, 72.0, 14.5, 24.0, 4.5, 72.0, 0.0, 0.0, 0.0, 1.6166613221223483E9, 2021-03-25 11:35:22.122
168.0, 114946.3203125, 114913.8046875, -187500.015625, 115004.640625, 115032.1796875, 114978.171875, 114954.703125, 114865.140625, -187500.015625, 160613.890625, -187500.015625, -187500.015625, 160755.734375, 160687.59375, -187500.015625, 160690.34375, 0.01743420509632898, 0.9313769019472602, 0.3063797818646208, 192.0, 0.0, 0.0, 0.0, 0.0, 0.0, 0.0, 0.0, 0.0, 0.0, 1.6166613221223524E9, 2021-03-25 11:35:22.122
170.0, 114821.625, 114788.9921875, -187500.015625, 114879.8515625, 114907.453125, 114853.40625, 114829.9375, 114740.421875, -187500.015625, 160591.484375, -187500.015625, -187500.015625, 160733.328125, 160665.234375, -187500.015625, 160667.984375, 0.01743420509632898, 0.9313769019472602, 0.3063797818646208, 192.0, 0.0, 0.0, 0.0, 0.0, 0.0, 0.0, 0.0, 0.0, 0.0, 1.616661322122357E9, 2021-03-25 11:35:22.122
172.0, 114830.2265625, 114797.640625, -187500.015625, 114888.546875, 114916.0546875, 114862.1484375, 114838.5390625, 114749.0703125, -187500.015625, 160568.890625, -187500.015625, -187500.015625, 160710.765625, 160642.671875, -187500.015625, 160645.375, 0.01743420509632898, 0.9313769019472602, 0.3063797818646208, 192.0, 0.0, 0.0, 0.0, 0.0, 0.0, 0.0, 0.0, 0.0, 0.0, 1.6166613221223626E9, 2021-03-25 11:35:22.122
174.0, 114759.4140625, 114726.875, -187500.015625, 114817.7109375, 114845.2265625, 114791.265625, 114767.6875, 114678.328125, -187500.015625, 160551.859375, -187500.015625, -187500.015625, 160693.71875, 160625.671875, -187500.015625, 160628.234375, 0.01743420509632898, 0.9313769019472602, 0.3063797818646208, 192.0, 0.0, 0.0, 0.0, 0.0, 0.0, 0.0, 0.0, 0.0, 0.0, 1.6166613221223671E9, 2021-03-25 11:35:22.122
176.0, 114685.0546875, 114652.5078125, -187500.015625, 114743.328125, 114770.90625, 114716.9921875, 114693.34375, 114604.0703125, -187500.015625, 160530.109375, -187500.015625, -187500.015625, 160672.046875, 160604.03125, -187500.015625, 160606.578125, 0.01743420509632898, 0.9313769019472602, 0.3063797818646208, 192.0, 0.0, 0.0, 0.0, 0.0, 0.0, 0.0, 0.0, 0.0, 0.0, 1.6166613221223712E9, 2021-03-25 11:35:22.122
178.0, 114696.6953125, 114664.15625, -187500.015625, 114754.8828125, 114782.5546875, 114728.640625, 114704.9453125, 114615.7421875, -187500.015625, 160508.078125, -187500.015625, -187500.015625, 160649.828125, 160581.828125, -187500.015625, 160584.453125, 0.014000000432133675, 0.9320000410079956, 0.2980000078678131, 192.0, 0.0, 56.0, 14.5, 16.0, 4.5, 40.0, 0.0, 0.0, 0.0, 1.6166613221223755E9, 2021-03-25 11:35:22.122
180.0, 114577.40625, 114544.8828125, -187500.015625, 114635.6328125, 114663.234375, 114609.5078125, 114585.6796875, 114496.5625, -187500.015625, 160488.421875, -187500.015625, -187500.015625, 160630.1875, 160562.234375, -187500.015625, 160564.71875, 0.014000000432133675, 0.9320000410079956, 0.2980000078678131, 192.0, 0.0, 0.0, 0.0, 0.0, 0.0, 0.0, 0.0, 0.0, 0.0, 1.61666132212238E9, 2021-03-25 11:35:22.122
182.0, 114580.7578125, 114548.125, -187500.015625, 114638.875, 114666.59375, 114612.7265625, 114588.921875, 114499.7578125, -187500.015625, 160466.5625, -187500.015625, -187500.015625, 160608.4375, 160540.421875, -187500.015625, 160542.9375, 0.014000000432133675, 0.9320000410079956, 0.2980000078678131, 192.0, 0.0, 0.0, 0.0, 0.0, 0.0, 0.0, 0.0, 0.0, 0.0, 1.6166613221223843E9, 2021-03-25 11:35:22.122
184.0, 114510.3515625, 114477.875, -187500.015625, 114568.53125, 114596.203125, 114542.4296875, 114518.6640625, 114429.546875, -187500.015625, 160446.25, -187500.015625, -187500.015625, 160588.15625, 160520.046875, -187500.015625, 160522.671875, 0.014000000432133675, 0.9320000410079956, 0.2980000078678131, 192.0, 0.0, 0.0, 0.0, 0.0, 0.0, 0.0, 0.0, 0.0, 0.0, 1.6166613221223884E9, 2021-03-25 11:35:22.122
186.0, 114435.1171875, 114402.4609375, -187500.015625, 114493.140625, 114520.8828125, 114467.1015625, 114443.34375, 114354.3125, -187500.015625, 160423.296875, -187500.015625, -187500.015625, 160565.3125, 160497.234375, -187500.015625, 160499.796875, 0.014000000432133675, 0.9320000410079956, 0.2980000078678131, 192.0, 0.0, 0.0, 0.0, 0.0, 0.0, 0.0, 0.0, 0.0, 0.0, 1.6166613221223931E9, 2021-03-25 11:35:22.122
188.0, 114448.8203125, 114416.1640625, -187500.015625, 114506.8671875, 114534.5390625, 114480.78125, 114456.9296875, 114367.9453125, -187500.015625, 160402.453125, -187500.015625, -187500.015625, 160544.296875, 160476.28125, -187500.015625, 160478.859375, 0.020000001415610313, 0.9300000667572021, 0.3020000159740448, 192.0, 0.0, 80.0, 14.5, 8.0, 4.5, 56.0, 0.0, 0.0, 0.0, 1.6166613221223972E9, 2021-03-25 11:35:22.122
190.0, 114331.6484375, 114298.953125, -187500.015625, 114389.671875, 114417.34375, 114363.5703125, 114339.7890625, 114250.9609375, -187500.015625, 160383.15625, -187500.015625, -187500.015625, 160525.109375, 160457.0, -187500.015625, 160459.59375, 0.020000001415610313, 0.9300000667572021, 0.3020000159740448, 192.0, 0.0, 0.0, 0.0, 0.0, 0.0, 0.0, 0.0, 0.0, 0.0, 1.6166613221224017E9, 2021-03-25 11:35:22.122
192.0, 114333.2109375, 114300.46875, -187500.015625, 114391.109375, 114418.796875, 114365.109375, 114341.2578125, 114252.5, -187500.015625, 160363.40625, -187500.015625, -187500.015625, 160505.296875, 160437.21875, -187500.015625, 160439.828125, 0.020000001415610313, 0.9300000667572021, 0.3020000159740448, 192.0, 0.0, 0.0, 0.0, 0.0, 0.0, 0.0, 0.0, 0.0, 0.0, 1.616661322122406E9, 2021-03-25 11:35:22.122
194.0, 114266.09375, 114233.328125, -187500.015625, 114323.9609375, 114351.6328125, 114297.921875, 114274.140625, 114185.2890625, -187500.015625, 160340.8125, -187500.015625, -187500.015625, 160482.6875, 160414.59375, -187500.015625, 160417.140625, 0.020000001415610313, 0.9300000667572021, 0.3020000159740448, 192.0, 0.0, 0.0, 0.0, 0.0, 0.0, 0.0, 0.0, 0.0, 0.0, 1.6166613221224103E9, 2021-03-25 11:35:22.122
196.0, 114191.015625, 114158.2421875, -187500.015625, 114248.859375, 114276.484375, 114222.84375, 114199.015625, 114110.28125, -187500.015625, 160320.703125, -187500.015625, -187500.015625, 160462.765625, 160394.703125, -187500.015625, 160397.140625, 0.020000001415610313, 0.9300000667572021, 0.3020000159740448, 192.0, 0.0, 0.0, 0.0, 0.0, 0.0, 0.0, 0.0, 0.0, 0.0, 1.6166613221224146E9, 2021-03-25 11:35:22.122
198.0, 114206.8359375, 114174.0234375, -187500.015625, 114264.6640625, 114292.375, 114238.78125, 114214.953125, 114126.125, -187500.015625, 160300.921875, -187500.015625, -187500.015625, 160442.875, 160374.78125, -187500.015625, 160377.3125, 0.01600000075995922, 0.9340000152587891, 0.3060000240802765, 192.0, 0.0, 64.0, 14.5, 24.0, 4.5, 72.0, 0.0, 0.0, 0.0, 1.6166613221224189E9, 2021-03-25 11:35:22.122
200.0, 114086.5625, 114053.6796875, -187500.015625, 114144.390625, 114172.078125, 114118.3671875, 114094.609375, 114005.875, -187500.015625, 160280.46875, -187500.015625, -187500.015625, 160422.4375, 160354.3125, -187500.015625, 160356.8125, 0.01600000075995922, 0.9340000152587891, 0.3060000240802765, 192.0, 0.0, 0.0, 0.0, 0.0, 0.0, 0.0, 0.0, 0.0, 0.0, 1.6166613221224232E9, 2021-03-25 11:35:22.122
202.0, 114088.6640625, 114055.8515625, -187500.015625, 114146.3515625, 114174.140625, 114120.4921875, 114096.6015625, 114007.90625, -187500.015625, 160259.125, -187500.015625, -187500.015625, 160401.0, 160332.953125, -187500.015625, 160335.453125, 0.01600000075995922, 0.9340000152587891, 0.3060000240802765, 192.0, 0.0, 0.0, 0.0, 0.0, 0.0, 0.0, 0.0, 0.0, 0.0, 1.6166613221224277E9, 2021-03-25 11:35:22.122
204.0, 114023.6015625, 113990.765625, -187500.015625, 114081.2890625, 114109.046875, 114055.3828125, 114031.484375, 113942.8671875, -187500.015625, 160238.234375, -187500.015625, -187500.015625, 160380.171875, 160312.21875, -187500.015625, 160314.5, 0.01600000075995922, 0.9340000152587891, 0.3060000240802765, 192.0, 0.0, 0.0, 0.0, 0.0, 0.0, 0.0, 0.0, 0.0, 0.0, 1.616661322122432E9, 2021-03-25 11:35:22.122
206.0, 113946.0390625, 113913.2265625, -187500.015625, 114003.6171875, 114031.4453125, 113977.890625, 113953.953125, 113865.3046875, -187500.015625, 160215.890625, -187500.015625, -187500.015625, 160357.84375, 160289.875, -187500.015625, 160292.265625, 0.01600000075995922, 0.9340000152587891, 0.3060000240802765, 192.0, 0.0, 0.0, 0.0, 0.0, 0.0, 0.0, 0.0, 0.0, 0.0, 1.6166613221224372E9, 2021-03-25 11:35:22.122
208.0, 113963.046875, 113930.078125, -187500.015625, 114020.6484375, 114048.3671875, 113994.7421875, 113971.0078125, 113882.3359375, -187500.015625, 160196.15625, -187500.015625, -187500.015625, 160337.953125, 160269.9375, -187500.015625, 160272.34375, 0.014000000432133675, 0.9320000410079956, 0.30800002813339233, 192.0, 0.0, 56.0, 14.5, 16.0, 4.5, 80.0, 0.0, 0.0, 0.0, 1.6166613221224415E9, 2021-03-25 11:35:22.122
210.0, 113843.328125, 113810.4296875, -187500.015625, 113901.0234375, 113928.734375, 113875.046875, 113851.359375, 113762.8671875, -187500.015625, 160175.015625, -187500.015625, -187500.015625, 160316.921875, 160248.859375, -187500.015625, 160251.296875, 0.014000000432133675, 0.9320000410079956, 0.30800002813339233, 192.0, 0.0, 0.0, 0.0, 0.0, 0.0, 0.0, 0.0, 0.0, 0.0, 1.6166613221224458E9, 2021-03-25 11:35:22.122
212.0, 113847.4453125, 113814.453125, -187500.015625, 113905.0703125, 113932.78125, 113879.2265625, 113855.3984375, 113766.8671875, -187500.015625, 160155.046875, -187500.015625, -187500.015625, 160296.984375, 160228.90625, -187500.015625, 160231.328125, 0.014000000432133675, 0.9320000410079956, 0.30800002813339233, 192.0, 0.0, 0.0, 0.0, 0.0, 0.0, 0.0, 0.0, 0.0, 0.0, 1.61666132212245E9, 2021-03-25 11:35:22.122
214.0, 113781.5078125, 113748.515625, -187500.015625, 113839.0390625, 113866.890625, 113813.2421875, 113789.375, 113700.9296875, -187500.015625, 160132.859375, -187500.015625, -187500.015625, 160274.765625, 160206.859375, -187500.015625, 160209.15625, 0.014000000432133675, 0.9320000410079956, 0.30800002813339233, 192.0, 0.0, 0.0, 0.0, 0.0, 0.0, 0.0, 0.0, 0.0, 0.0, 1.6166613221224544E9, 2021-03-25 11:35:22.122
216.0, 113705.0, 113671.9375, -187500.015625, 113762.53125, 113790.3359375, 113736.7109375, 113712.8828125, 113624.375, -187500.015625, 160112.0625, -187500.015625, -187500.015625, 160253.984375, 160186.078125, -187500.015625, 160188.421875, 0.014000000432133675, 0.9320000410079956, 0.30800002813339233, 192.0, 0.0, 0.0, 0.0, 0.0, 0.0, 0.0, 0.0, 0.0, 0.0, 1.6166613221224587E9, 2021-03-25 11:35:22.122
218.0, 113725.5625, 113692.546875, -187500.015625, 113782.984375, 113810.7421875, 113757.1875, 113733.359375, 113644.8671875, -187500.015625, 160092.484375, -187500.015625, -187500.015625, 160234.234375, 160166.375, -187500.015625, 160168.6875, 0.014000000432133675, 0.9320000410079956, 0.31200000643730164, 192.0, 0.0, 56.0, 14.5, 16.0, 4.5, 96.0, 0.0, 0.0, 0.0, 1.616661322122463E9, 2021-03-25 11:35:22.122
220.0, 113607.9921875, 113574.890625, -187500.015625, 113665.453125, 113693.1953125, 113639.75, 113615.859375, 113527.5, -187500.015625, 160073.546875, -187500.015625, -187500.015625, 160215.46875, 160147.65625, -187500.015625, 160149.90625, 0.014000000432133675, 0.9320000410079956, 0.31200000643730164, 192.0, 0.0, 0.0, 0.0, 0.0, 0.0, 0.0, 0.0, 0.0, 0.0, 1.6166613221224673E9, 2021-03-25 11:35:22.122
222.0, 113610.7578125, 113577.6796875, -187500.015625, 113668.2265625, 113695.9453125, 113642.453125, 113618.609375, 113530.203125, -187500.015625, 160054.0625, -187500.015625, -187500.015625, 160195.890625, 160128.03125, -187500.015625, 160130.34375, 0.014000000432133675, 0.9320000410079956, 0.31200000643730164, 192.0, 0.0, 0.0, 0.0, 0.0, 0.0, 0.0, 0.0, 0.0, 0.0, 1.6166613221224716E9, 2021-03-25 11:35:22.122
224.0, 113547.328125, 113514.2265625, -187500.015625, 113604.65625, 113632.53125, 113579.0234375, 113555.125, 113466.8125, -187500.015625, 160033.4375, -187500.015625, -187500.015625, 160175.28125, 160107.328125, -187500.015625, 160109.578125, 0.014000000432133675, 0.9320000410079956, 0.31200000643730164, 192.0, 0.0, 0.0, 0.0, 0.0, 0.0, 0.0, 0.0, 0.0, 0.0, 1.616661322122476E9, 2021-03-25 11:35:22.122
226.0, 113467.265625, 113434.1640625, -187500.015625, 113524.6171875, 113552.53125, 113498.9765625, 113474.9765625, 113386.8203125, -187500.015625, 160009.609375, -187500.015625, -187500.015625, 160151.546875, 160083.703125, -187500.015625, 160085.890625, 0.014000000432133675, 0.9320000410079956, 0.31200000643730164, 192.0, 0.0, 0.0, 0.0, 0.0, 0.0, 0.0, 0.0, 0.0, 0.0, 1.6166613221224804E9, 2021-03-25 11:35:22.122
228.0, 113484.7890625, 113451.59375, -187500.015625, 113542.0546875, 113569.96875, 113516.546875, 113492.453125, 113404.3671875, -187500.015625, 159987.28125, -187500.015625, -187500.015625, 160129.1875, 160061.265625, -187500.015625, 160063.453125, 0.014000000432133675, 0.9300000667572021, 0.3100000023841858, 192.0, 0.0, 56.0, 14.5, 8.0, 4.5, 88.0, 0.0, 0.0, 0.0, 1.6166613221224847E9, 2021-03-25 11:35:22.122
230.0, 113366.4375, 113333.265625, -187500.015625, 113423.71875, 113451.6171875, 113398.21875, 113374.171875, 113286.1953125, -187500.015625, 159965.90625, -187500.015625, -187500.015625, 160107.75, 160039.890625, -187500.015625, 160042.078125, 0.014000000432133675, 0.9300000667572021, 0.3100000023841858, 192.0, 0.0, 0.0, 0.0, 0.0, 0.0, 0.0, 0.0, 0.0, 0.0, 1.6166613221224892E9, 2021-03-25 11:35:22.122
232.0, 113367.1015625, 113334.0234375, -187500.015625, 113424.4375, 113452.3984375, 113399.0234375, 113374.90625, 113286.7734375, -187500.015625, 159945.203125, -187500.015625, -187500.015625, 160087.078125, 160019.1875, -187500.015625, 160021.5, 0.014000000432133675, 0.9300000667572021, 0.3100000023841858, 192.0, 0.0, 0.0, 0.0, 0.0, 0.0, 0.0, 0.0, 0.0, 0.0, 1.6166613221224933E9, 2021-03-25 11:35:22.122
234.0, 113307.78125, 113274.6171875, -187500.015625, 113365.0234375, 113393.078125, 113339.609375, 113315.515625, 113227.515625, -187500.015625, 159925.03125, -187500.015625, -187500.015625, 160066.796875, 159999.015625, -187500.015625, 160001.265625, 0.014000000432133675, 0.9300000667572021, 0.3100000023841858, 192.0, 0.0, 0.0, 0.0, 0.0, 0.0, 0.0, 0.0, 0.0, 0.0, 1.6166613221224976E9, 2021-03-25 11:35:22.122
236.0, 113228.9921875, 113195.8671875, -187500.015625, 113286.171875, 113314.21875, 113260.84375, 113236.6796875, 113148.796875, -187500.015625, 159902.828125, -187500.015625, -187500.015625, 160044.921875, 159977.0625, -187500.015625, 159979.234375, 0.014000000432133675, 0.9300000667572021, 0.3100000023841858, 192.0, 0.0, 0.0, 0.0, 0.0, 0.0, 0.0, 0.0, 0.0, 0.0, 1.616661322122502E9, 2021-03-25 11:35:22.122
238.0, 113248.1015625, 113214.953125, -187500.015625, 113305.28125, 113333.328125, 113279.953125, 113255.8359375, 113167.8359375, -187500.015625, 159883.3125, -187500.015625, -187500.015625, 160025.15625, 159957.390625, -187500.015625, 159959.609375, 0.01600000075995922, 0.9300000667572021, 0.31200000643730164, 192.0, 0.0, 64.0, 14.5, 8.0, 4.5, 96.0, 0.0, 0.0, 0.0, 1.6166613221225066E9, 2021-03-25 11:35:22.122
240.0, 113130.46875, 113097.25, -187500.015625, 113187.6015625, 113215.6484375, 113162.2265625, 113138.109375, 113050.1796875, -187500.015625, 159860.828125, -187500.015625, -187500.015625, 160002.671875, 159935.0, -187500.015625, 159937.125, 0.01600000075995922, 0.9300000667572021, 0.31200000643730164, 192.0, 0.0, 0.0, 0.0, 0.0, 0.0, 0.0, 0.0, 0.0, 0.0, 1.6166613226034813E9, 2021-03-25 11:35:22.603
242.0, 113128.765625, 113095.6640625, -187500.015625, 113185.9453125, 113214.0390625, 113160.59375, 113136.5, 113048.546875, -187500.015625, 159839.59375, -187500.015625, -187500.015625, 159981.46875, 159913.828125, -187500.015625, 159915.890625, 0.01600000075995922, 0.9300000667572021, 0.31200000643730164, 192.0, 0.0, 0.0, 0.0, 0.0, 0.0, 0.0, 0.0, 0.0, 0.0, 1.6166613226034875E9, 2021-03-25 11:35:22.603
244.0, 113075.015625, 113041.953125, -187500.015625, 113132.234375, 113160.28125, 113107.0, 113082.765625, 112994.8828125, -187500.015625, 159819.421875, -187500.015625, -187500.015625, 159961.21875, 159893.53125, -187500.015625, 159895.515625, 0.01600000075995922, 0.9300000667572021, 0.31200000643730164, 192.0, 0.0, 0.0, 0.0, 0.0, 0.0, 0.0, 0.0, 0.0, 0.0, 1.6166613226034915E9, 2021-03-25 11:35:22.603
246.0, 112994.296875, 112961.0859375, -187500.015625, 113051.4296875, 113079.484375, 113026.265625, 113001.96875, 112914.234375, -187500.015625, 159800.5, -187500.015625, -187500.015625, 159942.4375, 159874.640625, -187500.015625, 159876.703125, 0.01600000075995922, 0.9300000667572021, 0.31200000643730164, 192.0, 0.0, 0.0, 0.0, 0.0, 0.0, 0.0, 0.0, 0.0, 0.0, 1.6166613226034956E9, 2021-03-25 11:35:22.603
248.0, 113014.390625, 112981.1796875, -187500.015625, 113071.4609375, 113099.53125, 113046.203125, 113021.9921875, 112934.265625, -187500.015625, 159779.34375, -187500.015625, -187500.015625, 159921.1875, 159853.375, -187500.015625, 159855.421875, 0.01600000075995922, 0.9340000152587891, 0.3160000145435333, 192.0, 0.0, 64.0, 14.5, 24.0, 4.5, 112.0, 0.0, 0.0, 0.0, 1.6166613226035E9, 2021-03-25 11:35:22.603
250.0, 112900.890625, 112867.6328125, -187500.015625, 112957.890625, 112986.03125, 112932.7421875, 112908.46875, 112820.875, -187500.015625, 159759.921875, -187500.015625, -187500.015625, 159901.78125, 159834.0625, -187500.015625, 159836.09375, 0.01600000075995922, 0.9340000152587891, 0.3160000145435333, 192.0, 0.0, 0.0, 0.0, 0.0, 0.0, 0.0, 0.0, 0.0, 0.0, 1.6166613226035037E9, 2021-03-25 11:35:22.603
252.0, 112896.6875, 112863.3828125, -187500.015625, 112953.734375, 112981.8046875, 112928.6328125, 112904.2265625, 112816.6015625, -187500.015625, 159739.671875, -187500.015625, -187500.015625, 159881.484375, 159813.84375, -187500.015625, 159815.8125, 0.01600000075995922, 0.9340000152587891, 0.3160000145435333, 192.0, 0.0, 0.0, 0.0, 0.0, 0.0, 0.0, 0.0, 0.0, 0.0, 1.616661322603508E9, 2021-03-25 11:35:22.603
254.0, 112842.0625, 112808.8515625, -187500.015625, 112899.0625, 112927.0859375, 112873.890625, 112849.53125, 112762.0234375, -187500.015625, 159717.296875, -187500.015625, -187500.015625, 159859.046875, 159791.3125, -187500.015625, 159793.375, 0.01600000075995922, 0.9340000152587891, 0.3160000145435333, 192.0, 0.0, 0.0, 0.0, 0.0, 0.0, 0.0, 0.0, 0.0, 0.0, 1.616661322603512E9, 2021-03-25 11:35:22.603
0.0, 112762.046875, 112728.8046875, -187500.015625, 112819.015625, 112847.15625, 112793.9609375, 112769.484375, 112682.1171875, -187500.015625, 159697.796875, -187500.015625, -187500.015625, 159839.6875, 159771.890625, -187500.015625, 159773.84375, 0.01600000075995922, 0.9340000152587891, 0.3160000145435333, 192.0, 0.0, 0.0, 0.0, 0.0, 0.0, 0.0, 0.0, 0.0, 0.0, 1.6166613226035173E9, 2021-03-25 11:35:22.603
2.0, 112779.4296875, 112746.109375, -187500.015625, 112836.34375, 112864.5, 112811.328125, 112786.828125, 112699.484375, -187500.015625, 159676.3125, -187500.015625, -187500.015625, 159818.15625, 159750.375, -187500.015625, 159752.34375, 0.01600000075995922, 0.9360000491142273, 0.3140000104904175, 192.0, 0.0, 64.0, 14.5, 32.0, 4.5, 104.0, 0.0, 0.0, 0.0, 1.616661322603521E9, 2021-03-25 11:35:22.603
4.0, 112662.7578125, 112629.4296875, -187500.015625, 112719.640625, 112747.734375, 112694.5859375, 112670.15625, 112582.875, -187500.015625, 159652.984375, -187500.015625, -187500.015625, 159794.765625, 159727.0625, -187500.015625, 159729.0, 0.01600000075995922, 0.9360000491142273, 0.3140000104904175, 192.0, 0.0, 0.0, 0.0, 0.0, 0.0, 0.0, 0.0, 0.0, 0.0, 1.6166613226035256E9, 2021-03-25 11:35:22.603
6.0, 112662.265625, 112629.03125, -187500.015625, 112719.2421875, 112747.25, 112694.1796875, 112669.6875, 112582.421875, -187500.015625, 159633.5625, -187500.015625, -187500.015625, 159775.296875, 159707.640625, -187500.015625, 159709.59375, 0.01600000075995922, 0.9360000491142273, 0.3140000104904175, 192.0, 0.0, 0.0, 0.0, 0.0, 0.0, 0.0, 0.0, 0.0, 0.0, 1.6166613226035297E9, 2021-03-25 11:35:22.603
8.0, 112610.25, 112576.9296875, -187500.015625, 112667.0703125, 112695.234375, 112642.015625, 112617.671875, 112530.4375, -187500.015625, 159614.671875, -187500.015625, -187500.015625, 159756.46875, 159688.71875, -187500.015625, 159690.71875, 0.01600000075995922, 0.9360000491142273, 0.3140000104904175, 192.0, 0.0, 0.0, 0.0, 0.0, 0.0, 0.0, 0.0, 0.0, 0.0, 1.6166613226035335E9, 2021-03-25 11:35:22.603
10.0, 112528.84375, 112495.453125, -187500.015625, 112585.6875, 112613.8046875, 112560.65625, 112536.203125, 112449.0546875, -187500.015625, 159595.0, -187500.015625, -187500.015625, 159736.9375, 159669.1875, -187500.015625, 159671.203125, 0.01600000075995922, 0.9360000491142273, 0.3140000104904175, 192.0, 0.0, 0.0, 0.0, 0.0, 0.0, 0.0, 0.0, 0.0, 0.0, 1.6166613226035376E9, 2021-03-25 11:35:22.603
12.0, 112547.46875, 112513.984375, -187500.015625, 112604.21875, 112632.421875, 112579.203125, 112554.734375, 112467.4453125, -187500.015625, 159573.8125, -187500.015625, -187500.015625, 159715.640625, 159647.84375, -187500.015625, 159649.75, 0.012000000104308128, 0.9360000491142273, 0.30400002002716064, 192.0, 0.0, 48.0, 14.5, 32.0, 4.5, 64.0, 0.0, 0.0, 0.0, 1.6166613226035416E9, 2021-03-25 11:35:22.603
14.0, 112432.0859375, 112398.734375, -187500.015625, 112488.859375, 112517.0234375, 112463.984375, 112439.4609375, 112352.3125, -187500.015625, 159550.796875, -187500.015625, -187500.015625, 159692.640625, 159624.984375, -187500.015625, 159626.75, 0.012000000104308128, 0.9360000491142273, 0.30400002002716064, 192.0, 0.0, 0.0, 0.0, 0.0, 0.0, 0.0, 0.0, 0.0, 0.0, 1.6166613226035457E9, 2021-03-25 11:35:22.603
16.0, 112426.703125, 112393.2421875, -187500.015625, 112483.4296875, 112511.65625, 112458.53125, 112434.078125, 112346.8359375, -187500.015625, 159530.203125, -187500.015625, -187500.015625, 159672.0, 159604.34375, -187500.015625, 159606.265625, 0.012000000104308128, 0.9360000491142273, 0.30400002002716064, 192.0, 0.0, 0.0, 0.0, 0.0, 0.0, 0.0, 0.0, 0.0, 0.0, 1.6166613226035497E9, 2021-03-25 11:35:22.603
18.0, 112375.046875, 112341.5625, -187500.015625, 112431.6875, 112459.9140625, 112406.78125, 112382.421875, 112295.296875, -187500.015625, 159508.875, -187500.015625, -187500.015625, 159650.65625, 159583.046875, -187500.015625, 159584.90625, 0.012000000104308128, 0.9360000491142273, 0.30400002002716064, 192.0, 0.0, 0.0, 0.0, 0.0, 0.0, 0.0, 0.0, 0.0, 0.0, 1.6166613226035588E9, 2021-03-25 11:35:22.603
20.0, 112291.6484375, 112258.1484375, -187500.015625, 112348.2890625, 112376.4765625, 112323.4609375, 112299.0234375, 112211.8984375, -187500.015625, 159488.453125, -187500.015625, -187500.015625, 159630.296875, 159562.75, -187500.015625, 159564.53125, 0.012000000104308128, 0.9360000491142273, 0.30400002002716064, 192.0, 0.0, 0.0, 0.0, 0.0, 0.0, 0.0, 0.0, 0.0, 0.0, 1.6166613226035628E9, 2021-03-25 11:35:22.603
22.0, 112310.984375, 112277.4140625, -187500.015625, 112367.53125, 112395.7890625, 112342.7890625, 112318.296875, 112231.2109375, -187500.015625, 159466.796875, -187500.015625, -187500.015625, 159608.578125, 159540.9375, -187500.015625, 159542.75, 0.010000000707805157, 0.9320000410079956, 0.3060000240802765, 192.0, 0.0, 40.0, 14.5, 16.0, 4.5, 72.0, 0.0, 0.0, 0.0, 1.616661322603567E9, 2021-03-25 11:35:22.603
24.0, 112195.3828125, 112161.765625, -187500.015625, 112251.953125, 112280.1875, 112227.2109375, 112202.7109375, 112115.7421875, -187500.015625, 159446.078125, -187500.015625, -187500.015625, 159587.921875, 159520.265625, -187500.015625, 159522.09375, 0.010000000707805157, 0.9320000410079956, 0.3060000240802765, 192.0, 0.0, 0.0, 0.0, 0.0, 0.0, 0.0, 0.0, 0.0, 0.0, 1.6166613226035707E9, 2021-03-25 11:35:22.603
26.0, 112187.734375, 112154.1171875, -187500.015625, 112244.2421875, 112272.5859375, 112219.546875, 112195.0, 112108.140625, -187500.015625, 159422.65625, -187500.015625, -187500.015625, 159564.453125, 159496.8125, -187500.015625, 159498.71875, 0.010000000707805157, 0.9320000410079956, 0.3060000240802765, 192.0, 0.0, 0.0, 0.0, 0.0, 0.0, 0.0, 0.0, 0.0, 0.0, 1.6166613226035748E9, 2021-03-25 11:35:22.603
28.0, 112139.9921875, 112106.5078125, -187500.015625, 112196.5703125, 112224.84375, 112171.8671875, 112147.328125, 112060.4921875, -187500.015625, 159403.96875, -187500.015625, -187500.015625, 159545.765625, 159478.0625, -187500.015625, 159480.03125, 0.010000000707805157, 0.9320000410079956, 0.3060000240802765, 192.0, 0.0, 0.0, 0.0, 0.0, 0.0, 0.0, 0.0, 0.0, 0.0, 1.616661322603579E9, 2021-03-25 11:35:22.603
30.0, 112056.2421875, 112022.6484375, -187500.015625, 112112.7265625, 112141.0859375, 112088.1171875, 112063.4375, 111976.7109375, -187500.015625, 159384.453125, -187500.015625, -187500.015625, 159526.34375, 159458.703125, -187500.015625, 159460.609375, 0.010000000707805157, 0.9320000410079956, 0.3060000240802765, 192.0, 0.0, 0.0, 0.0, 0.0, 0.0, 0.0, 0.0, 0.0, 0.0, 1.616661322603583E9, 2021-03-25 11:35:22.603
32.0, 112076.9140625, 112043.34375, -187500.015625, 112133.359375, 112161.7421875, 112108.765625, 112084.09375, 111997.3671875, -187500.015625, 159364.640625, -187500.015625, -187500.015625, 159506.421875, 159438.90625, -187500.015625, 159440.671875, 0.012000000104308128, 0.9340000152587891, 0.3100000023841858, 192.0, 0.0, 48.0, 14.5, 24.0, 4.5, 88.0, 0.0, 0.0, 0.0, 1.6166613226035872E9, 2021-03-25 11:35:22.603
34.0, 111962.453125, 111928.7265625, -187500.015625, 112018.78125, 112047.1484375, 111994.2421875, 111969.609375, 111882.9296875, -187500.015625, 159344.46875, -187500.015625, -187500.015625, 159486.390625, 159418.78125, -187500.015625, 159420.484375, 0.012000000104308128, 0.9340000152587891, 0.3100000023841858, 192.0, 0.0, 0.0, 0.0, 0.0, 0.0, 0.0, 0.0, 0.0, 0.0, 1.616661322603591E9, 2021-03-25 11:35:22.603
36.0, 111950.7890625, 111916.96875, -187500.015625, 112007.0703125, 112035.5, 111982.5234375, 111957.9140625, 111871.2109375, -187500.015625, 159321.421875, -187500.015625, -187500.015625, 159463.375, 159395.84375, -187500.015625, 159397.484375, 0.012000000104308128, 0.9340000152587891, 0.3100000023841858, 192.0, 0.0, 0.0, 0.0, 0.0, 0.0, 0.0, 0.0, 0.0, 0.0, 1.6166613226035953E9, 2021-03-25 11:35:22.603
38.0, 111904.0234375, 111870.234375, -187500.015625, 111960.265625, 111988.71875, 111935.7890625, 111911.09375, 111824.5234375, -187500.015625, 159299.875, -187500.015625, -187500.015625, 159441.640625, 159374.25, -187500.015625, 159375.796875, 0.012000000104308128, 0.9340000152587891, 0.3100000023841858, 192.0, 0.0, 0.0, 0.0, 0.0, 0.0, 0.0, 0.0, 0.0, 0.0, 1.6166613226035993E9, 2021-03-25 11:35:22.603
40.0, 111818.4609375, 111784.7109375, -187500.015625, 111874.609375, 111903.1328125, 111850.25, 111825.546875, 111738.9375, -187500.015625, 159281.75, -187500.015625, -187500.015625, 159423.625, 159356.15625, -187500.015625, 159357.8125, 0.012000000104308128, 0.9340000152587891, 0.3100000023841858, 192.0, 0.0, 0.0, 0.0, 0.0, 0.0, 0.0, 0.0, 0.0, 0.0, 1.6166613226036031E9, 2021-03-25 11:35:22.603
42.0, 111836.8125, 111803.0859375, -187500.015625, 111893.0546875, 111921.5078125, 111868.640625, 111843.8984375, 111757.3125, -187500.015625, 159259.703125, -187500.015625, -187500.015625, 159401.59375, 159334.046875, -187500.015625, 159335.75, 0.014000000432133675, 0.9300000667572021, 0.3140000104904175, 192.0, 0.0, 56.0, 14.5, 8.0, 4.5, 104.0, 0.0, 0.0, 0.0, 1.6166613226036072E9, 2021-03-25 11:35:22.603
44.0, 111721.0078125, 111687.3046875, -187500.015625, 111777.203125, 111805.765625, 111752.8203125, 111728.0546875, 111641.6640625, -187500.015625, 159237.375, -187500.015625, -187500.015625, 159379.265625, 159311.71875, -187500.015625, 159313.421875, 0.014000000432133675, 0.9300000667572021, 0.3140000104904175, 192.0, 0.0, 0.0, 0.0, 0.0, 0.0, 0.0, 0.0, 0.0, 0.0, 1.6166613226036112E9, 2021-03-25 11:35:22.603
46.0, 111710.546875, 111676.8203125, -187500.015625, 111766.6953125, 111795.21875, 111742.359375, 111717.59375, 111631.0859375, -187500.015625, 159216.75, -187500.015625, -187500.015625, 159358.671875, 159291.046875, -187500.015625, 159292.765625, 0.014000000432133675, 0.9300000667572021, 0.3140000104904175, 192.0, 0.0, 0.0, 0.0, 0.0, 0.0, 0.0, 0.0, 0.0, 0.0, 1.6166613226036153E9, 2021-03-25 11:35:22.603
48.0, 111666.0, 111632.2109375, -187500.015625, 111722.0859375, 111750.6484375, 111697.8125, 111673.0625, 111586.5859375, -187500.015625, 159197.046875, -187500.015625, -187500.015625, 159338.921875, 159271.421875, -187500.015625, 159272.984375, 0.014000000432133675, 0.9300000667572021, 0.3140000104904175, 192.0, 0.0, 0.0, 0.0, 0.0, 0.0, 0.0, 0.0, 0.0, 0.0, 1.6166613226036193E9, 2021-03-25 11:35:22.603
50.0, 111577.15625, 111543.25, -187500.015625, 111633.125, 111661.7578125, 111608.890625, 111584.125, 111497.6953125, -187500.015625, 159178.171875, -187500.015625, -187500.015625, 159320.078125, 159252.53125, -187500.015625, 159254.109375, 0.014000000432133675, 0.9300000667572021, 0.3140000104904175, 192.0, 0.0, 0.0, 0.0, 0.0, 0.0, 0.0, 0.0, 0.0, 0.0, 1.6166613226036236E9, 2021-03-25 11:35:22.603
52.0, 111598.234375, 111564.3671875, -187500.015625, 111654.2265625, 111682.8359375, 111629.9921875, 111605.203125, 111518.8359375, -187500.015625, 159156.953125, -187500.015625, -187500.015625, 159298.84375, 159231.5, -187500.015625, 159232.953125, 0.020000001415610313, 0.9300000667572021, 0.30800002813339233, 192.0, 0.0, 80.0, 14.5, 8.0, 4.5, 80.0, 0.0, 0.0, 0.0, 1.616661322603629E9, 2021-03-25 11:35:22.603
54.0, 111481.21875, 111447.4453125, -187500.015625, 111537.1015625, 111565.7578125, 111513.0078125, 111488.171875, 111401.8984375, -187500.015625, 159135.75, -187500.015625, -187500.015625, 159277.59375, 159210.15625, -187500.015625, 159211.734375, 0.020000001415610313, 0.9300000667572021, 0.30800002813339233, 192.0, 0.0, 0.0, 0.0, 0.0, 0.0, 0.0, 0.0, 0.0, 0.0, 1.6166613226036332E9, 2021-03-25 11:35:22.603
56.0, 111468.8359375, 111435.0859375, -187500.015625, 111524.8984375, 111553.4375, 111500.53125, 111475.7890625, 111389.5546875, -187500.015625, 159114.53125, -187500.015625, -187500.015625, 159256.53125, 159189.0, -187500.015625, 159190.640625, 0.020000001415610313, 0.9300000667572021, 0.30800002813339233, 192.0, 0.0, 0.0, 0.0, 0.0, 0.0, 0.0, 0.0, 0.0, 0.0, 1.6166613226036372E9, 2021-03-25 11:35:22.603
58.0, 111422.1015625, 111388.2578125, -187500.015625, 111478.0, 111506.6796875, 111453.84375, 111429.078125, 111342.84375, -187500.015625, 159093.09375, -187500.015625, -187500.015625, 159234.96875, 159167.53125, -187500.015625, 159169.0, 0.020000001415610313, 0.9300000667572021, 0.30800002813339233, 192.0, 0.0, 0.0, 0.0, 0.0, 0.0, 0.0, 0.0, 0.0, 0.0, 1.6166613226036415E9, 2021-03-25 11:35:22.603
60.0, 111331.578125, 111297.671875, -187500.015625, 111387.4296875, 111416.0625, 111363.4296875, 111338.4140625, 111252.3359375, -187500.015625, 159072.125, -187500.015625, -187500.015625, 159214.078125, 159146.578125, -187500.015625, 159148.140625, 0.020000001415610313, 0.9300000667572021, 0.30800002813339233, 192.0, 0.0, 0.0, 0.0, 0.0, 0.0, 0.0, 0.0, 0.0, 0.0, 1.616661322603646E9, 2021-03-25 11:35:22.603
62.0, 111353.078125, 111319.21875, -187500.015625, 111408.984375, 111437.6796875, 111384.953125, 111360.0078125, 111273.84375, -187500.015625, 159052.21875, -187500.015625, -187500.015625, 159194.015625, 159126.59375, -187500.015625, 159128.171875, 0.018000001087784767, 0.9320000410079956, 0.3060000240802765, 192.0, 0.0, 72.0, 14.5, 16.0, 4.5, 72.0, 0.0, 0.0, 0.0, 1.61666132260365E9, 2021-03-25 11:35:22.603
64.0, 111236.734375, 111202.7890625, -187500.015625, 111292.53125, 111321.3203125, 111268.609375, 111243.6015625, 111157.65625, -187500.015625, 159031.15625, -187500.015625, -187500.015625, 159173.0625, 159105.640625, -187500.015625, 159107.109375, 0.018000001087784767, 0.9320000410079956, 0.3060000240802765, 192.0, 0.0, 0.0, 0.0, 0.0, 0.0, 0.0, 0.0, 0.0, 0.0, 1.6166613226036541E9, 2021-03-25 11:35:22.603
66.0, 111221.921875, 111187.8984375, -187500.015625, 111277.640625, 111306.4296875, 111253.703125, 111228.734375, 111142.7265625, -187500.015625, 159009.59375, -187500.015625, -187500.015625, 159151.5, 159084.09375, -187500.015625, 159085.578125, 0.018000001087784767, 0.9320000410079956, 0.3060000240802765, 192.0, 0.0, 0.0, 0.0, 0.0, 0.0, 0.0, 0.0, 0.0, 0.0, 1.6166613226036587E9, 2021-03-25 11:35:22.603
68.0, 111177.375, 111143.3515625, -187500.015625, 111233.1640625, 111261.859375, 111209.1328125, 111184.234375, 111098.25, -187500.015625, 158988.90625, -187500.015625, -187500.015625, 159130.78125, 159063.390625, -187500.015625, 159064.84375, 0.018000001087784767, 0.9320000410079956, 0.3060000240802765, 192.0, 0.0, 0.0, 0.0, 0.0, 0.0, 0.0, 0.0, 0.0, 0.0, 1.6166613226036627E9, 2021-03-25 11:35:22.603
70.0, 111086.46875, 111052.3359375, -187500.015625, 111142.1875, 111170.890625, 111118.1640625, 111093.2421875, 111007.1875, -187500.015625, 158968.78125, -187500.015625, -187500.015625, 159110.6875, 159043.390625, -187500.015625, 159044.796875, 0.018000001087784767, 0.9320000410079956, 0.3060000240802765, 192.0, 0.0, 0.0, 0.0, 0.0, 0.0, 0.0, 0.0, 0.0, 0.0, 1.6166613226036668E9, 2021-03-25 11:35:22.603
72.0, 111106.9609375, 111072.875, -187500.015625, 111162.578125, 111191.3671875, 111138.703125, 111113.7578125, 111027.8125, -187500.015625, 158949.1875, -187500.015625, -187500.015625, 159091.171875, 159023.71875, -187500.015625, 159025.0625, 0.018000001087784767, 0.9300000667572021, 0.30800002813339233, 192.0, 0.0, 72.0, 14.5, 8.0, 4.5, 80.0, 0.0, 0.0, 0.0, 1.6166613226036708E9, 2021-03-25 11:35:22.603
74.0, 110991.828125, 110957.6328125, -187500.015625, 111047.4609375, 111076.1875, 111023.59375, 110998.6015625, 110912.7734375, -187500.015625, 158927.15625, -187500.015625, -187500.015625, 159069.109375, 159001.671875, -187500.015625, 159003.109375, 0.018000001087784767, 0.9300000667572021, 0.30800002813339233, 192.0, 0.0, 0.0, 0.0, 0.0, 0.0, 0.0, 0.0, 0.0, 0.0, 1.616661322603675E9, 2021-03-25 11:35:22.603
76.0, 110977.6171875, 110943.4375, -187500.015625, 111033.1796875, 111061.921875, 111009.3984375, 110984.40625, 110898.5546875, -187500.015625, 158908.96875, -187500.015625, -187500.015625, 159050.828125, 158983.453125, -187500.015625, 158984.828125, 0.018000001087784767, 0.9300000667572021, 0.30800002813339233, 192.0, 0.0, 0.0, 0.0, 0.0, 0.0, 0.0, 0.0, 0.0, 0.0, 1.616661322603679E9, 2021-03-25 11:35:22.603
78.0, 110931.6171875, 110897.484375, -187500.015625, 110987.1796875, 111015.96875, 110963.484375, 110938.40625, 110852.578125, -187500.015625, 158886.828125, -187500.015625, -187500.015625, 159028.625, 158961.265625, -187500.015625, 158962.625, 0.018000001087784767, 0.9300000667572021, 0.30800002813339233, 192.0, 0.0, 0.0, 0.0, 0.0, 0.0, 0.0, 0.0, 0.0, 0.0, 1.6166613226036832E9, 2021-03-25 11:35:22.603
80.0, 110838.359375, 110804.1171875, -187500.015625, 110893.859375, 110922.671875, 110870.3046875, 110845.0703125, 110759.3515625, -187500.015625, 158864.5, -187500.015625, -187500.015625, 159006.390625, 158939.046875, -187500.015625, 158940.4375, 0.018000001087784767, 0.9300000667572021, 0.30800002813339233, 192.0, 0.0, 0.0, 0.0, 0.0, 0.0, 0.0, 0.0, 0.0, 0.0, 1.6166613226036873E9, 2021-03-25 11:35:22.603
82.0, 110860.265625, 110825.9765625, -187500.015625, 110915.71875, 110944.578125, 110892.0546875, 110866.9921875, 110781.234375, -187500.015625, 158845.015625, -187500.015625, -187500.015625, 158986.859375, 158919.5625, -187500.015625, 158920.859375, 0.020000001415610313, 0.9320000410079956, 0.30800002813339233, 192.0, 0.0, 80.0, 14.5, 16.0, 4.5, 80.0, 0.0, 0.0, 0.0, 1.616661322603691E9, 2021-03-25 11:35:22.603
84.0, 110744.3515625, 110710.0625, -187500.015625, 110799.7578125, 110828.484375, 110776.109375, 110750.9453125, 110665.3125, -187500.015625, 158823.640625, -187500.015625, -187500.015625, 158965.59375, 158898.25, -187500.015625, 158899.578125, 0.020000001415610313, 0.9320000410079956, 0.30800002813339233, 192.0, 0.0, 0.0, 0.0, 0.0, 0.0, 0.0, 0.0, 0.0, 0.0, 1.6166613226036952E9, 2021-03-25 11:35:22.603
86.0, 110726.421875, 110692.203125, -187500.015625, 110781.8125, 110810.625, 110758.2734375, 110733.0390625, 110647.4765625, -187500.015625, 158803.03125, -187500.015625, -187500.015625, 158944.921875, 158877.671875, -187500.015625, 158878.9375, 0.020000001415610313, 0.9320000410079956, 0.30800002813339233, 192.0, 0.0, 0.0, 0.0, 0.0, 0.0, 0.0, 0.0, 0.0, 0.0, 1.6166613226037004E9, 2021-03-25 11:35:22.603
88.0, 110684.8515625, 110650.5859375, -187500.015625, 110740.2578125, 110769.0703125, 110716.6796875, 110691.515625, 110605.96875, -187500.015625, 158782.03125, -187500.015625, -187500.015625, 158923.734375, 158856.53125, -187500.015625, 158857.75, 0.020000001415610313, 0.9320000410079956, 0.30800002813339233, 192.0, 0.0, 0.0, 0.0, 0.0, 0.0, 0.0, 0.0, 0.0, 0.0, 1.6166613226037045E9, 2021-03-25 11:35:22.603
90.0, 110589.1640625, 110554.921875, -187500.015625, 110644.6171875, 110673.3828125, 110621.0625, 110595.8203125, 110510.3515625, -187500.015625, 158760.765625, -187500.015625, -187500.015625, 158902.546875, 158835.265625, -187500.015625, 158836.609375, 0.020000001415610313, 0.9320000410079956, 0.30800002813339233, 192.0, 0.0, 0.0, 0.0, 0.0, 0.0, 0.0, 0.0, 0.0, 0.0, 1.6166613226037085E9, 2021-03-25 11:35:22.603
92.0, 110611.25, 110577.09375, -187500.015625, 110666.703125, 110695.3984375, 110643.1171875, 110617.90625, 110532.3671875, -187500.015625, 158740.859375, -187500.015625, -187500.015625, 158882.65625, 158815.484375, -187500.015625, 158816.65625, 0.018000001087784767, 0.9320000410079956, 0.30400002002716064, 192.0, 0.0, 72.0, 14.5, 16.0, 4.5, 64.0, 0.0, 0.0, 0.0, 1.6166613226037123E9, 2021-03-25 11:35:22.603
94.0, 110494.796875, 110460.4609375, -187500.015625, 110550.09375, 110578.96875, 110526.46875, 110501.3671875, 110415.9375, -187500.015625, 158719.9375, -187500.015625, -187500.015625, 158861.734375, 158794.5, -187500.015625, 158795.734375, 0.018000001087784767, 0.9320000410079956, 0.30400002002716064, 192.0, 0.0, 0.0, 0.0, 0.0, 0.0, 0.0, 0.0, 0.0, 0.0, 1.6166613226037166E9, 2021-03-25 11:35:22.603
96.0, 110476.9140625, 110442.625, -187500.015625, 110532.234375, 110561.15625, 110508.71875, 110483.484375, 110398.1484375, -187500.015625, 158698.03125, -187500.015625, -187500.015625, 158839.84375, 158772.578125, -187500.015625, 158773.796875, 0.018000001087784767, 0.9320000410079956, 0.30400002002716064, 192.0, 0.0, 0.0, 0.0, 0.0, 0.0, 0.0, 0.0, 0.0, 0.0, 1.6166613226037207E9, 2021-03-25 11:35:22.603
98.0, 110435.3125, 110401.0546875, -187500.015625, 110490.6171875, 110519.5390625, 110467.1484375, 110441.8671875, 110356.59375, -187500.015625, 158678.015625, -187500.015625, -187500.015625, 158819.75, 158752.59375, -187500.015625, 158753.75, 0.018000001087784767, 0.9320000410079956, 0.30400002002716064, 192.0, 0.0, 0.0, 0.0, 0.0, 0.0, 0.0, 0.0, 0.0, 0.0, 1.6166613226037257E9, 2021-03-25 11:35:22.603
100.0, 110339.9609375, 110305.6796875, -187500.015625, 110395.265625, 110424.0703125, 110371.859375, 110346.46875, 110261.2890625, -187500.015625, 158655.9375, -187500.015625, -187500.015625, 158797.71875, 158730.703125, -187500.015625, 158731.828125, 0.018000001087784767, 0.9320000410079956, 0.30400002002716064, 192.0, 0.0, 0.0, 0.0, 0.0, 0.0, 0.0, 0.0, 0.0, 0.0, 1.6166613226037295E9, 2021-03-25 11:35:22.603
102.0, 110360.90625, 110326.640625, -187500.015625, 110416.140625, 110444.9296875, 110392.734375, 110367.390625, 110282.140625, -187500.015625, 158635.953125, -187500.015625, -187500.015625, 158777.71875, 158710.546875, -187500.015625, 158711.703125, 0.01600000075995922, 0.9320000410079956, 0.30800002813339233, 192.0, 0.0, 64.0, 14.5, 16.0, 4.5, 80.0, 0.0, 0.0, 0.0, 1.6166613226037335E9, 2021-03-25 11:35:22.603
104.0, 110248.609375, 110214.34375, -187500.015625, 110303.8671875, 110332.6328125, 110280.3984375, 110255.0703125, 110170.0, -187500.015625, 158615.265625, -187500.015625, -187500.015625, 158757.0625, 158689.890625, -187500.015625, 158691.015625, 0.01600000075995922, 0.9320000410079956, 0.30800002813339233, 192.0, 0.0, 0.0, 0.0, 0.0, 0.0, 0.0, 0.0, 0.0, 0.0, 1.616661323082626E9, 2021-03-25 11:35:23.082
106.0, 110228.203125, 110193.984375, -187500.015625, 110283.4375, 110312.3125, 110260.03125, 110234.8203125, 110149.59375, -187500.015625, 158595.796875, -187500.015625, -187500.015625, 158737.6875, 158670.421875, -187500.015625, 158671.59375, 0.01600000075995922, 0.9320000410079956, 0.30800002813339233, 192.0, 0.0, 0.0, 0.0, 0.0, 0.0, 0.0, 0.0, 0.0, 0.0, 1.616661323082785E9, 2021-03-25 11:35:23.082
108.0, 110190.3671875, 110156.0546875, -187500.015625, 110245.59375, 110274.4296875, 110222.1484375, 110196.9375, 110111.7109375, -187500.015625, 158575.265625, -187500.015625, -187500.015625, 158717.0, 158649.921875, -187500.015625, 158651.046875, 0.01600000075995922, 0.9320000410079956, 0.30800002813339233, 192.0, 0.0, 0.0, 0.0, 0.0, 0.0, 0.0, 0.0, 0.0, 0.0, 1.61666132308279E9, 2021-03-25 11:35:23.082
110.0, 110090.7890625, 110056.4296875, -187500.015625, 110145.953125, 110174.71875, 110122.5, 110097.2265625, 110012.171875, -187500.015625, 158552.875, -187500.015625, -187500.015625, 158694.75, 158627.640625, -187500.015625, 158628.71875, 0.01600000075995922, 0.9320000410079956, 0.30800002813339233, 192.0, 0.0, 0.0, 0.0, 0.0, 0.0, 0.0, 0.0, 0.0, 0.0, 1.616661323082795E9, 2021-03-25 11:35:23.082
112.0, 110113.6328125, 110079.390625, -187500.015625, 110168.75, 110197.625, 110145.34375, 110120.1328125, 110035.0859375, -187500.015625, 158532.109375, -187500.015625, -187500.015625, 158673.984375, 158606.765625, -187500.015625, 158607.890625, 0.012000000104308128, 0.9360000491142273, 0.3060000240802765, 192.0, 0.0, 48.0, 14.5, 32.0, 4.5, 72.0, 0.0, 0.0, 0.0, 1.6166613230827992E9, 2021-03-25 11:35:23.082
114.0, 109999.3203125, 109964.9921875, -187500.015625, 110054.375, 110083.3671875, 110031.0390625, 110005.78125, 109920.84375, -187500.015625, 158512.171875, -187500.015625, -187500.015625, 158654.078125, 158586.890625, -187500.015625, 158587.90625, 0.012000000104308128, 0.9360000491142273, 0.3060000240802765, 192.0, 0.0, 0.0, 0.0, 0.0, 0.0, 0.0, 0.0, 0.0, 0.0, 1.616661323082805E9, 2021-03-25 11:35:23.082
116.0, 109977.7734375, 109943.421875, -187500.015625, 110032.875, 110061.7265625, 110009.4296875, 109984.171875, 109899.34375, -187500.015625, 158489.984375, -187500.015625, -187500.015625, 158632.03125, 158564.828125, -187500.015625, 158565.765625, 0.012000000104308128, 0.9360000491142273, 0.3060000240802765, 192.0, 0.0, 0.0, 0.0, 0.0, 0.0, 0.0, 0.0, 0.0, 0.0, 1.6166613230828097E9, 2021-03-25 11:35:23.082
118.0, 109940.9609375, 109906.5625, -187500.015625, 109995.859375, 110024.828125, 109972.65625, 109947.3515625, 109862.3984375, -187500.015625, 158469.296875, -187500.015625, -187500.015625, 158611.125, 158544.046875, -187500.015625, 158544.984375, 0.012000000104308128, 0.9360000491142273, 0.3060000240802765, 192.0, 0.0, 0.0, 0.0, 0.0, 0.0, 0.0, 0.0, 0.0, 0.0, 1.6166613230828142E9, 2021-03-25 11:35:23.082
120.0, 109842.8359375, 109808.53125, -187500.015625, 109897.8203125, 109926.8125, 109874.6875, 109849.3203125, 109764.4765625, -187500.015625, 158448.265625, -187500.015625, -187500.015625, 158590.03125, 158523.03125, -187500.015625, 158523.96875, 0.012000000104308128, 0.9360000491142273, 0.3060000240802765, 192.0, 0.0, 0.0, 0.0, 0.0, 0.0, 0.0, 0.0, 0.0, 0.0, 1.616661323082824E9, 2021-03-25 11:35:23.082
122.0, 109865.9296875, 109831.5546875, -187500.015625, 109920.9140625, 109949.90625, 109897.7578125, 109872.4296875, 109787.671875, -187500.015625, 158428.0, -187500.015625, -187500.015625, 158569.65625, 158502.71875, -187500.015625, 158503.640625, 0.01600000075995922, 0.9280000329017639, 0.3100000023841858, 192.0, 0.0, 64.0, 14.5, 0.0, 4.5, 88.0, 0.0, 0.0, 0.0, 1.6166613230828288E9, 2021-03-25 11:35:23.082
124.0, 109752.71875, 109718.296875, -187500.015625, 109807.65625, 109836.625, 109784.5234375, 109759.015625, 109674.3984375, -187500.015625, 158407.765625, -187500.015625, -187500.015625, 158549.5, 158482.421875, -187500.015625, 158483.3125, 0.01600000075995922, 0.9280000329017639, 0.3100000023841858, 192.0, 0.0, 0.0, 0.0, 0.0, 0.0, 0.0, 0.0, 0.0, 0.0, 1.6166613230828333E9, 2021-03-25 11:35:23.082
126.0, 109730.8125, 109696.296875, -187500.015625, 109785.640625, 109814.65625, 109762.6171875, 109737.1171875, 109652.515625, -187500.015625, 158385.796875, -187500.015625, -187500.015625, 158527.59375, 158460.5625, -187500.015625, 158461.40625, 0.01600000075995922, 0.9280000329017639, 0.3100000023841858, 192.0, 0.0, 0.0, 0.0, 0.0, 0.0, 0.0, 0.0, 0.0, 0.0, 1.616661323082838E9, 2021-03-25 11:35:23.082
128.0, 109698.5390625, 109664.0234375, -187500.015625, 109753.34375, 109782.3984375, 109730.4296875, 109704.796875, 109620.1953125, -187500.015625, 158366.65625, -187500.015625, -187500.015625, 158508.3125, 158441.390625, -187500.015625, 158442.25, 0.01600000075995922, 0.9280000329017639, 0.3100000023841858, 192.0, 0.0, 0.0, 0.0, 0.0, 0.0, 0.0, 0.0, 0.0, 0.0, 1.6166613230828428E9, 2021-03-25 11:35:23.082
130.0, 109597.6171875, 109562.953125, -187500.015625, 109652.2421875, 109681.4140625, 109629.3359375, 109603.7421875, 109519.296875, -187500.015625, 158345.828125, -187500.015625, -187500.015625, 158487.609375, 158420.6875, -187500.015625, 158421.46875, 0.01600000075995922, 0.9280000329017639, 0.3100000023841858, 192.0, 0.0, 0.0, 0.0, 0.0, 0.0, 0.0, 0.0, 0.0, 0.0, 1.6166613230828474E9, 2021-03-25 11:35:23.082
132.0, 109620.4140625, 109585.8828125, -187500.015625, 109675.203125, 109704.328125, 109652.265625, 109626.65625, 109542.2109375, -187500.015625, 158324.0, -187500.015625, -187500.015625, 158465.703125, 158398.71875, -187500.015625, 158399.453125, 0.014000000432133675, 0.9280000329017639, 0.3100000023841858, 192.0, 0.0, 56.0, 14.5, 0.0, 4.5, 88.0, 0.0, 0.0, 0.0, 1.616661323082852E9, 2021-03-25 11:35:23.082
134.0, 109505.0625, 109470.4140625, -187500.015625, 109559.7109375, 109588.8125, 109536.8203125, 109511.203125, 109426.78125, -187500.015625, 158301.1875, -187500.015625, -187500.015625, 158442.90625, 158375.96875, -187500.015625, 158376.78125, 0.014000000432133675, 0.9280000329017639, 0.3100000023841858, 192.0, 0.0, 0.0, 0.0, 0.0, 0.0, 0.0, 0.0, 0.0, 0.0, 1.6166613230828564E9, 2021-03-25 11:35:23.082
136.0, 109481.078125, 109446.5234375, -187500.015625, 109535.8125, 109564.8515625, 109512.90625, 109487.1328125, 109402.890625, -187500.015625, 158277.40625, -187500.015625, -187500.015625, 158419.28125, 158352.25, -187500.015625, 158353.03125, 0.014000000432133675, 0.9280000329017639, 0.3100000023841858, 192.0, 0.0, 0.0, 0.0, 0.0, 0.0, 0.0, 0.0, 0.0, 0.0, 1.6166613230828612E9, 2021-03-25 11:35:23.082
138.0, 109449.6953125, 109415.09375, -187500.015625, 109504.3203125, 109533.5546875, 109481.4765625, 109455.8203125, 109371.53125, -187500.015625, 158257.125, -187500.015625, -187500.015625, 158398.96875, 158331.953125, -187500.015625, 158332.59375, 0.014000000432133675, 0.9280000329017639, 0.3100000023841858, 192.0, 0.0, 0.0, 0.0, 0.0, 0.0, 0.0, 0.0, 0.0, 0.0, 1.6166613230828657E9, 2021-03-25 11:35:23.082
140.0, 109350.203125, 109315.515625, -187500.015625, 109404.703125, 109433.8671875, 109381.8984375, 109356.21875, 109272.0234375, -187500.015625, 158237.046875, -187500.015625, -187500.015625, 158378.890625, 158312.0625, -187500.015625, 158312.703125, 0.014000000432133675, 0.9280000329017639, 0.3100000023841858, 192.0, 0.0, 0.0, 0.0, 0.0, 0.0, 0.0, 0.0, 0.0, 0.0, 1.6166613230828705E9, 2021-03-25 11:35:23.082
142.0, 109375.171875, 109340.53125, -187500.015625, 109429.640625, 109458.8359375, 109406.8203125, 109381.2109375, 109296.984375, -187500.015625, 158217.5625, -187500.015625, -187500.015625, 158359.28125, 158292.40625, -187500.015625, 158293.078125, 0.018000001087784767, 0.9240000247955322, 0.3100000023841858, 192.0, 0.0, 72.0, 14.0, 112.0, 4.5, 88.0, 0.0, 0.0, 0.0, 1.6166613230828748E9, 2021-03-25 11:35:23.082
144.0, 109267.1953125, 109232.4609375, -187500.015625, 109321.640625, 109350.828125, 109298.84375, 109273.1796875, 109189.0703125, -187500.015625, 158199.5, -187500.015625, -187500.015625, 158341.234375, 158274.34375, -187500.015625, 158275.09375, 0.018000001087784767, 0.9240000247955322, 0.3100000023841858, 192.0, 0.0, 0.0, 0.0, 0.0, 0.0, 0.0, 0.0, 0.0, 0.0, 1.6166613230828795E9, 2021-03-25 11:35:23.082
146.0, 109242.5390625, 109207.78125, -187500.015625, 109297.0078125, 109326.2265625, 109274.2734375, 109248.5703125, 109164.4375, -187500.015625, 158178.4375, -187500.015625, -187500.015625, 158320.1875, 158253.3125, -187500.015625, 158254.03125, 0.018000001087784767, 0.9240000247955322, 0.3100000023841858, 192.0, 0.0, 0.0, 0.0, 0.0, 0.0, 0.0, 0.0, 0.0, 0.0, 1.616661323082884E9, 2021-03-25 11:35:23.082
148.0, 109215.7578125, 109180.984375, -187500.015625, 109270.296875, 109299.359375, 109247.6328125, 109221.796875, 109137.8203125, -187500.015625, 158160.625, -187500.015625, -187500.015625, 158302.265625, 158235.25, -187500.015625, 158236.046875, 0.018000001087784767, 0.9240000247955322, 0.3100000023841858, 192.0, 0.0, 0.0, 0.0, 0.0, 0.0, 0.0, 0.0, 0.0, 0.0, 1.6166613230828888E9, 2021-03-25 11:35:23.082
150.0, 109111.421875, 109076.6640625, -187500.015625, 109165.890625, 109194.9921875, 109143.2265625, 109117.4140625, 109033.5234375, -187500.015625, 158140.125, -187500.015625, -187500.015625, 158281.890625, 158214.984375, -187500.015625, 158215.71875, 0.018000001087784767, 0.9240000247955322, 0.3100000023841858, 192.0, 0.0, 0.0, 0.0, 0.0, 0.0, 0.0, 0.0, 0.0, 0.0, 1.6166613230828931E9, 2021-03-25 11:35:23.082
152.0, 109133.375, 109098.5703125, -187500.015625, 109187.75, 109217.015625, 109165.15625, 109139.3359375, 109055.3671875, -187500.015625, 158114.734375, -187500.015625, -187500.015625, 158256.375, 158189.53125, -187500.015625, 158190.15625, 0.018000001087784767, 0.9240000247955322, 0.30000001192092896, 192.0, 0.0, 72.0, 14.0, 112.0, 4.5, 48.0, 0.0, 0.0, 0.0, 1.616661323082898E9, 2021-03-25 11:35:23.082
154.0, 109026.9140625, 108992.1328125, -187500.015625, 109081.2734375, 109110.53125, 109058.671875, 109032.875, 108948.96875, -187500.015625, 158094.421875, -187500.015625, -187500.015625, 158236.078125, 158169.25, -187500.015625, 158169.96875, 0.018000001087784767, 0.9240000247955322, 0.30000001192092896, 192.0, 0.0, 0.0, 0.0, 0.0, 0.0, 0.0, 0.0, 0.0, 0.0, 1.6166613230829043E9, 2021-03-25 11:35:23.082
156.0, 109001.0234375, 108966.1796875, -187500.015625, 109055.40625, 109084.5078125, 109032.8359375, 109006.953125, 108923.109375, -187500.015625, 158075.953125, -187500.015625, -187500.015625, 158217.75, 158150.953125, -187500.015625, 158151.53125, 0.018000001087784767, 0.9240000247955322, 0.30000001192092896, 192.0, 0.0, 0.0, 0.0, 0.0, 0.0, 0.0, 0.0, 0.0, 0.0, 1.616661323082909E9, 2021-03-25 11:35:23.082
158.0, 108973.0390625, 108938.1953125, -187500.015625, 109027.3984375, 109056.5703125, 109004.734375, 108978.9453125, 108895.078125, -187500.015625, 158054.234375, -187500.015625, -187500.015625, 158195.890625, 158129.09375, -187500.015625, 158129.71875, 0.018000001087784767, 0.9240000247955322, 0.30000001192092896, 192.0, 0.0, 0.0, 0.0, 0.0, 0.0, 0.0, 0.0, 0.0, 0.0, 1.6166613230829136E9, 2021-03-25 11:35:23.082
160.0, 108872.1484375, 108837.234375, -187500.015625, 108926.3515625, 108955.609375, 108903.90625, 108877.9609375, 108794.25, -187500.015625, 158032.96875, -187500.015625, -187500.015625, 158174.75, 158107.875, -187500.015625, 158108.5, 0.018000001087784767, 0.9240000247955322, 0.30000001192092896, 192.0, 0.0, 0.0, 0.0, 0.0, 0.0, 0.0, 0.0, 0.0, 0.0, 1.616661323082918E9, 2021-03-25 11:35:23.082
162.0, 108894.6328125, 108859.6953125, -187500.015625, 108948.8359375, 108978.046875, 108926.4140625, 108900.421875, 108816.671875, -187500.015625, 158012.1875, -187500.015625, -187500.015625, 158153.890625, 158087.09375, -187500.015625, 158087.625, 0.018000001087784767, 0.9260000288486481, 0.2980000078678131, 192.0, 0.0, 72.0, 14.5, 0.0, 4.5, 32.0, 0.0, 0.0, 0.0, 1.6166613230829225E9, 2021-03-25 11:35:23.082
164.0, 108790.9453125, 108755.921875, -187500.015625, 108845.171875, 108874.40625, 108822.6640625, 108796.6640625, 108713.1171875, -187500.015625, 157992.203125, -187500.015625, -187500.015625, 158133.953125, 158067.078125, -187500.015625, 158067.671875, 0.018000001087784767, 0.9260000288486481, 0.2980000078678131, 192.0, 0.0, 0.0, 0.0, 0.0, 0.0, 0.0, 0.0, 0.0, 0.0, 1.6166613230829272E9, 2021-03-25 11:35:23.082
166.0, 108763.5625, 108728.6953125, -187500.015625, 108817.875, 108847.1328125, 108795.34375, 108769.328125, 108685.78125, -187500.015625, 157973.671875, -187500.015625, -187500.015625, 158115.453125, 158048.625, -187500.015625, 158049.140625, 0.018000001087784767, 0.9260000288486481, 0.2980000078678131, 192.0, 0.0, 0.0, 0.0, 0.0, 0.0, 0.0, 0.0, 0.0, 0.0, 1.6166613230829313E9, 2021-03-25 11:35:23.082
168.0, 108738.390625, 108703.5, -187500.015625, 108792.6640625, 108821.96875, 108770.15625, 108744.2734375, 108660.6328125, -187500.015625, 157953.9375, -187500.015625, -187500.015625, 158095.65625, 158028.8125, -187500.015625, 158029.28125, 0.018000001087784767, 0.9260000288486481, 0.2980000078678131, 192.0, 0.0, 0.0, 0.0, 0.0, 0.0, 0.0, 0.0, 0.0, 0.0, 1.616661323082936E9, 2021-03-25 11:35:23.082
170.0, 108637.7421875, 108602.8046875, -187500.015625, 108691.9921875, 108721.296875, 108669.5703125, 108643.6484375, 108560.140625, -187500.015625, 157933.390625, -187500.015625, -187500.015625, 158075.234375, 158008.34375, -187500.015625, 158008.8125, 0.018000001087784767, 0.9260000288486481, 0.2980000078678131, 192.0, 0.0, 0.0, 0.0, 0.0, 0.0, 0.0, 0.0, 0.0, 0.0, 1.6166613230829408E9, 2021-03-25 11:35:23.082
172.0, 108661.9765625, 108626.9453125, -187500.015625, 108716.109375, 108745.4375, 108693.78125, 108667.7421875, 108584.1875, -187500.015625, 157914.46875, -187500.015625, -187500.015625, 158056.15625, 157989.359375, -187500.015625, 157989.8125, 0.01900000125169754, 0.9290000349283218, 0.29600000381469727, 192.0, 0.0, 80.0, 14.5, 16.0, 4.5, 24.0, 0.0, 0.0, 0.0, 1.6166613230829453E9, 2021-03-25 11:35:23.082
174.0, 108556.1796875, 108521.0703125, -187500.015625, 108610.1640625, 108639.53125, 108587.96875, 108561.8125, 108478.421875, -187500.015625, 157893.453125, -187500.015625, -187500.015625, 158035.203125, 157968.359375, -187500.015625, 157968.890625, 0.01900000125169754, 0.9290000349283218, 0.29600000381469727, 192.0, 0.0, 0.0, 0.0, 0.0, 0.0, 0.0, 0.0, 0.0, 0.0, 1.61666132308295E9, 2021-03-25 11:35:23.082
176.0, 108529.671875, 108494.625, -187500.015625, 108583.6953125, 108613.15625, 108561.5, 108535.5078125, 108452.0234375, -187500.015625, 157873.78125, -187500.015625, -187500.015625, 158015.609375, 157948.78125, -187500.015625, 157949.359375, 0.01900000125169754, 0.9290000349283218, 0.29600000381469727, 192.0, 0.0, 0.0, 0.0, 0.0, 0.0, 0.0, 0.0, 0.0, 0.0, 1.6166613230829546E9, 2021-03-25 11:35:23.082
178.0, 108502.9609375, 108467.9375, -187500.015625, 108556.9453125, 108586.3359375, 108534.7265625, 108508.6875, 108425.3125, -187500.015625, 157854.421875, -187500.015625, -187500.015625, 157996.234375, 157929.421875, -187500.015625, 157929.9375, 0.01900000125169754, 0.9290000349283218, 0.29600000381469727, 192.0, 0.0, 0.0, 0.0, 0.0, 0.0, 0.0, 0.0, 0.0, 0.0, 1.6166613230829597E9, 2021-03-25 11:35:23.082
180.0, 108398.046875, 108362.84375, -187500.015625, 108452.0, 108481.375, 108429.7421875, 108403.65625, 108320.390625, -187500.015625, 157830.046875, -187500.015625, -187500.015625, 157971.84375, 157905.0625, -187500.015625, 157905.5625, 0.01900000125169754, 0.9290000349283218, 0.29600000381469727, 192.0, 0.0, 0.0, 0.0, 0.0, 0.0, 0.0, 0.0, 0.0, 0.0, 1.6166613230829642E9, 2021-03-25 11:35:23.082
182.0, 108419.234375, 108384.09375, -187500.015625, 108473.1484375, 108502.609375, 108450.953125, 108424.890625, 108341.671875, -187500.015625, 157806.0, -187500.015625, -187500.015625, 157947.703125, 157881.0, -187500.015625, 157881.453125, 0.016500000841915607, 0.9285000339150429, 0.30000001192092896, 192.0, 0.0, 56.0, 14.5, 0.0, 4.5, 64.0, 0.0, 0.0, 0.0, 1.6166613230829687E9, 2021-03-25 11:35:23.082
184.0, 108312.8359375, 108277.765625, -187500.015625, 108366.84375, 108396.1875, 108344.515625, 108318.5390625, 108235.3671875, -187500.015625, 157785.25, -187500.015625, -187500.015625, 157926.9375, 157860.234375, -187500.015625, 157860.6875, 0.016500000841915607, 0.9285000339150429, 0.30000001192092896, 192.0, 0.0, 0.0, 0.0, 0.0, 0.0, 0.0, 0.0, 0.0, 0.0, 1.6166613230829737E9, 2021-03-25 11:35:23.082
186.0, 108282.171875, 108247.171875, -187500.015625, 108336.109375, 108365.5859375, 108313.953125, 108287.9140625, 108204.765625, -187500.015625, 157761.421875, -187500.015625, -187500.015625, 157903.140625, 157836.453125, -187500.015625, 157836.875, 0.016500000841915607, 0.9285000339150429, 0.30000001192092896, 192.0, 0.0, 0.0, 0.0, 0.0, 0.0, 0.0, 0.0, 0.0, 0.0, 1.6166613230829787E9, 2021-03-25 11:35:23.082
188.0, 108261.25, 108226.2265625, -187500.015625, 108315.25, 108344.734375, 108293.125, 108267.015625, 108183.84375, -187500.015625, 157742.515625, -187500.015625, -187500.015625, 157884.109375, 157817.484375, -187500.015625, 157817.890625, 0.016500000841915607, 0.9285000339150429, 0.30000001192092896, 192.0, 0.0, 0.0, 0.0, 0.0, 0.0, 0.0, 0.0, 0.0, 0.0, 1.6166613230829852E9, 2021-03-25 11:35:23.082
190.0, 108158.5703125, 108123.453125, -187500.015625, 108212.546875, 108241.8984375, 108190.421875, 108164.21875, 108081.234375, -187500.015625, 157722.6875, -187500.015625, -187500.015625, 157864.390625, 157797.796875, -187500.015625, 157798.0625, 0.016500000841915607, 0.9285000339150429, 0.30000001192092896, 192.0, 0.0, 0.0, 0.0, 0.0, 0.0, 0.0, 0.0, 0.0, 0.0, 1.6166613230829897E9, 2021-03-25 11:35:23.082
192.0, 108184.5390625, 108149.265625, -187500.015625, 108238.296875, 108267.7578125, 108216.2578125, 108190.171875, 108107.0, -187500.015625, 157704.25, -187500.015625, -187500.015625, 157845.78125, 157779.21875, -187500.015625, 157779.546875, 0.016250000800937414, 0.9272500462830067, 0.30000001192092896, 192.0, 0.0, 64.0, 14.0, 120.0, 4.5, 48.0, 0.0, 0.0, 0.0, 1.6166613230829945E9, 2021-03-25 11:35:23.082
194.0, 108080.6484375, 108045.3984375, -187500.015625, 108134.4296875, 108163.890625, 108112.3203125, 108086.3046875, 108003.1796875, -187500.015625, 157684.828125, -187500.015625, -187500.015625, 157826.421875, 157759.796875, -187500.015625, 157760.15625, 0.016250000800937414, 0.9272500462830067, 0.30000001192092896, 192.0, 0.0, 0.0, 0.0, 0.0, 0.0, 0.0, 0.0, 0.0, 0.0, 1.6166613230829997E9, 2021-03-25 11:35:23.082
196.0, 108046.046875, 108010.9140625, -187500.015625, 108099.828125, 108129.375, 108077.8125, 108051.7734375, 107968.8046875, -187500.015625, 157662.515625, -187500.015625, -187500.015625, 157804.265625, 157737.640625, -187500.015625, 157737.890625, 0.016250000800937414, 0.9272500462830067, 0.30000001192092896, 192.0, 0.0, 0.0, 0.0, 0.0, 0.0, 0.0, 0.0, 0.0, 0.0, 1.6166613230830042E9, 2021-03-25 11:35:23.083
198.0, 108022.46875, 107987.265625, -187500.015625, 108076.25, 108105.6796875, 108054.1875, 108028.1015625, 107945.171875, -187500.015625, 157639.921875, -187500.015625, -187500.015625, 157781.65625, 157715.015625, -187500.015625, 157715.203125, 0.016250000800937414, 0.9272500462830067, 0.30000001192092896, 192.0, 0.0, 0.0, 0.0, 0.0, 0.0, 0.0, 0.0, 0.0, 0.0, 1.616661323083009E9, 2021-03-25 11:35:23.083
200.0, 107917.9921875, 107882.75, -187500.015625, 107971.640625, 108001.078125, 107949.671875, 107923.4921875, 107840.6796875, -187500.015625, 157617.125, -187500.015625, -187500.015625, 157758.921875, 157692.25, -187500.015625, 157692.484375, 0.016250000800937414, 0.9272500462830067, 0.30000001192092896, 192.0, 0.0, 0.0, 0.0, 0.0, 0.0, 0.0, 0.0, 0.0, 0.0, 1.616661323083014E9, 2021-03-25 11:35:23.083
202.0, 107939.7890625, 107904.5625, -187500.015625, 107993.453125, 108023.046875, 107971.5703125, 107945.3515625, 107862.515625, -187500.015625, 157596.828125, -187500.015625, -187500.015625, 157738.640625, 157671.96875, -187500.015625, 157672.21875, 0.016125000780448318, 0.9276250395923853, 0.30000001192092896, 192.0, 0.0, 64.0, 14.5, 0.0, 4.5, 48.0, 0.0, 0.0, 0.0, 1.6166613230830188E9, 2021-03-25 11:35:23.083
204.0, 107838.15625, 107802.9296875, -187500.015625, 107891.8671875, 107921.3515625, 107869.8984375, 107843.6953125, 107761.015625, -187500.015625, 157575.546875, -187500.015625, -187500.015625, 157717.1875, 157650.640625, -187500.015625, 157650.828125, 0.016125000780448318, 0.9276250395923853, 0.30000001192092896, 192.0, 0.0, 0.0, 0.0, 0.0, 0.0, 0.0, 0.0, 0.0, 0.0, 1.6166613230830233E9, 2021-03-25 11:35:23.083
206.0, 107804.515625, 107769.2421875, -187500.015625, 107858.203125, 107887.640625, 107836.234375, 107810.0390625, 107727.3125, -187500.015625, 157556.453125, -187500.015625, -187500.015625, 157698.21875, 157631.6875, -187500.015625, 157631.921875, 0.016125000780448318, 0.9276250395923853, 0.30000001192092896, 192.0, 0.0, 0.0, 0.0, 0.0, 0.0, 0.0, 0.0, 0.0, 0.0, 1.616661323083029E9, 2021-03-25 11:35:23.083
208.0, 107783.953125, 107748.6796875, -187500.015625, 107837.578125, 107867.1484375, 107815.7578125, 107789.4921875, 107706.8203125, -187500.015625, 157535.0, -187500.015625, -187500.015625, 157676.6875, 157610.03125, -187500.015625, 157610.234375, 0.016125000780448318, 0.9276250395923853, 0.30000001192092896, 192.0, 0.0, 0.0, 0.0, 0.0, 0.0, 0.0, 0.0, 0.0, 0.0, 1.616661323083034E9, 2021-03-25 11:35:23.083
210.0, 107681.0703125, 107645.703125, -187500.015625, 107734.5546875, 107764.1484375, 107712.7421875, 107686.5, 107603.9765625, -187500.015625, 157515.234375, -187500.015625, -187500.015625, 157656.96875, 157590.359375, -187500.015625, 157590.640625, 0.016125000780448318, 0.9276250395923853, 0.30000001192092896, 192.0, 0.0, 0.0, 0.0, 0.0, 0.0, 0.0, 0.0, 0.0, 0.0, 1.6166613230830393E9, 2021-03-25 11:35:23.083
212.0, 107702.234375, 107666.875, -187500.015625, 107755.71875, 107785.203125, 107734.0, 107707.578125, 107625.0546875, -187500.015625, 157495.34375, -187500.015625, -187500.015625, 157636.96875, 157570.5, -187500.015625, 157570.625, 0.017062500934116542, 0.9288125531747937, 0.30000001192092896, 192.0, 0.0, 72.0, 14.5, 8.0, 4.5, 48.0, 0.0, 0.0, 0.0, 1.6166613230830443E9, 2021-03-25 11:35:23.083
214.0, 107596.78125, 107561.3515625, -187500.015625, 107650.203125, 107679.8828125, 107628.4921875, 107602.1640625, 107519.6640625, -187500.015625, 157471.546875, -187500.015625, -187500.015625, 157613.15625, 157546.640625, -187500.015625, 157546.84375, 0.017062500934116542, 0.9288125531747937, 0.30000001192092896, 192.0, 0.0, 0.0, 0.0, 0.0, 0.0, 0.0, 0.0, 0.0, 0.0, 1.6166613230830488E9, 2021-03-25 11:35:23.083
216.0, 107563.5, 107528.15625, -187500.015625, 107617.03125, 107646.671875, 107595.3515625, 107569.0390625, 107486.5390625, -187500.015625, 157451.03125, -187500.015625, -187500.015625, 157592.640625, 157526.109375, -187500.015625, 157526.234375, 0.017062500934116542, 0.9288125531747937, 0.30000001192092896, 192.0, 0.0, 0.0, 0.0, 0.0, 0.0, 0.0, 0.0, 0.0, 0.0, 1.6166613230830536E9, 2021-03-25 11:35:23.083
218.0, 107548.5625, 107513.1640625, -187500.015625, 107602.1015625, 107631.671875, 107580.28125, 107554.0234375, 107471.609375, -187500.015625, 157433.046875, -187500.015625, -187500.015625, 157574.71875, 157508.09375, -187500.015625, 157508.25, 0.017062500934116542, 0.9288125531747937, 0.30000001192092896, 192.0, 0.0, 0.0, 0.0, 0.0, 0.0, 0.0, 0.0, 0.0, 0.0, 1.6166613230830584E9, 2021-03-25 11:35:23.083
220.0, 107440.8984375, 107405.4921875, -187500.015625, 107494.34375, 107523.9375, 107472.640625, 107446.265625, 107363.8984375, -187500.015625, 157413.984375, -187500.015625, -187500.015625, 157555.578125, 157489.203125, -187500.015625, 157489.21875, 0.017062500934116542, 0.9288125531747937, 0.30000001192092896, 192.0, 0.0, 0.0, 0.0, 0.0, 0.0, 0.0, 0.0, 0.0, 0.0, 1.6166613230830631E9, 2021-03-25 11:35:23.083
222.0, 107462.0234375, 107426.6171875, -187500.015625, 107515.421875, 107545.1015625, 107493.7578125, 107467.359375, 107384.9765625, -187500.015625, 157390.984375, -187500.015625, -187500.015625, 157532.5625, 157466.09375, -187500.015625, 157466.203125, 0.01653125084703788, 0.9314062842167914, 0.3010000139474869, 192.0, 0.0, 64.0, 14.5, 24.0, 4.5, 56.0, 0.0, 0.0, 0.0, 1.6166613230830698E9, 2021-03-25 11:35:23.083
224.0, 107364.2109375, 107328.78125, -187500.015625, 107417.5859375, 107447.2421875, 107395.9453125, 107369.59375, 107287.2734375, -187500.015625, 157372.25, -187500.015625, -187500.015625, 157513.8125, 157447.359375, -187500.015625, 157447.5, 0.01653125084703788, 0.9314062842167914, 0.3010000139474869, 192.0, 0.0, 0.0, 0.0, 0.0, 0.0, 0.0, 0.0, 0.0, 0.0, 1.6166613235636036E9, 2021-03-25 11:35:23.563
226.0, 107328.203125, 107292.75, -187500.015625, 107381.4453125, 107411.2109375, 107359.875, 107333.5, 107251.15625, -187500.015625, 157355.21875, -187500.015625, -187500.015625, 157497.0, 157430.453125, -187500.015625, 157430.59375, 0.01653125084703788, 0.9314062842167914, 0.3010000139474869, 192.0, 0.0, 0.0, 0.0, 0.0, 0.0, 0.0, 0.0, 0.0, 0.0, 1.6166613235637553E9, 2021-03-25 11:35:23.563
228.0, 107309.828125, 107274.3125, -187500.015625, 107363.0, 107392.84375, 107341.4765625, 107315.078125, 107232.8515625, -187500.015625, 157333.96875, -187500.015625, -187500.015625, 157475.609375, 157409.203125, -187500.015625, 157409.203125, 0.01653125084703788, 0.9314062842167914, 0.3010000139474869, 192.0, 0.0, 0.0, 0.0, 0.0, 0.0, 0.0, 0.0, 0.0, 0.0, 1.6166613235637603E9, 2021-03-25 11:35:23.563
230.0, 107199.453125, 107163.9609375, -187500.015625, 107252.609375, 107282.46875, 107231.1953125, 107204.75, 107122.5, -187500.015625, 157310.40625, -187500.015625, -187500.015625, 157452.203125, 157385.71875, -187500.015625, 157385.828125, 0.01653125084703788, 0.9314062842167914, 0.3010000139474869, 192.0, 0.0, 0.0, 0.0, 0.0, 0.0, 0.0, 0.0, 0.0, 0.0, 1.6166613235637662E9, 2021-03-25 11:35:23.563
232.0, 107223.2109375, 107187.671875, -187500.015625, 107276.4765625, 107306.1875, 107255.046875, 107228.625, 107146.34375, -187500.015625, 157290.984375, -187500.015625, -187500.015625, 157432.625, 157366.21875, -187500.015625, 157366.203125, 0.01626562580349855, 0.9307031754869968, 0.30650001019239426, 192.0, 0.0, 64.0, 14.5, 8.0, 4.5, 96.0, 0.0, 0.0, 0.0, 1.616661323563772E9, 2021-03-25 11:35:23.563
234.0, 107120.3046875, 107084.765625, -187500.015625, 107173.4140625, 107203.234375, 107151.9765625, 107125.71875, 107043.5546875, -187500.015625, 157270.625, -187500.015625, -187500.015625, 157412.25, 157345.90625, -187500.015625, 157345.84375, 0.01626562580349855, 0.9307031754869968, 0.30650001019239426, 192.0, 0.0, 0.0, 0.0, 0.0, 0.0, 0.0, 0.0, 0.0, 0.0, 1.6166613235637772E9, 2021-03-25 11:35:23.563
236.0, 107079.2890625, 107043.6875, -187500.015625, 107132.375, 107162.2578125, 107110.9609375, 107084.65625, 107002.515625, -187500.015625, 157246.9375, -187500.015625, -187500.015625, 157388.59375, 157322.21875, -187500.015625, 157322.140625, 0.01626562580349855, 0.9307031754869968, 0.30650001019239426, 192.0, 0.0, 0.0, 0.0, 0.0, 0.0, 0.0, 0.0, 0.0, 0.0, 1.6166613235637827E9, 2021-03-25 11:35:23.563
238.0, 107061.546875, 107025.828125, -187500.015625, 107114.5859375, 107144.3125, 107093.1953125, 107066.75, 106984.65625, -187500.015625, 157225.625, -187500.015625, -187500.015625, 157367.140625, 157300.890625, -187500.015625, 157300.75, 0.01626562580349855, 0.9307031754869968, 0.30650001019239426, 192.0, 0.0, 0.0, 0.0, 0.0, 0.0, 0.0, 0.0, 0.0, 0.0, 1.6166613235637887E9, 2021-03-25 11:35:23.563
240.0, 106952.6484375, 106916.953125, -187500.015625, 107005.734375, 107035.4375, 106984.296875, 106957.8515625, 106875.84375, -187500.015625, 157201.3125, -187500.015625, -187500.015625, 157343.0, 157276.75, -187500.015625, 157276.640625, 0.01626562580349855, 0.9307031754869968, 0.30650001019239426, 192.0, 0.0, 0.0, 0.0, 0.0, 0.0, 0.0, 0.0, 0.0, 0.0, 1.6166613235637944E9, 2021-03-25 11:35:23.563
242.0, 106975.421875, 106939.8203125, -187500.015625, 107028.4609375, 107058.328125, 107007.1171875, 106980.609375, 106898.6875, -187500.015625, 157183.8125, -187500.015625, -187500.015625, 157325.453125, 157259.140625, -187500.015625, 157259.15625, 0.015132813117816113, 0.9323515953728929, 0.30825000628829, 192.0, 0.0, 56.0, 14.5, 24.0, 4.5, 88.0, 0.0, 0.0, 0.0, 1.6166613235637996E9, 2021-03-25 11:35:23.563
244.0, 106877.7890625, 106842.1171875, -187500.015625, 106930.7421875, 106960.5390625, 106909.4375, 106882.953125, 106801.078125, -187500.015625, 157163.3125, -187500.015625, -187500.015625, 157304.9375, 157238.578125, -187500.015625, 157238.5, 0.015132813117816113, 0.9323515953728929, 0.30825000628829, 192.0, 0.0, 0.0, 0.0, 0.0, 0.0, 0.0, 0.0, 0.0, 0.0, 1.616661323563805E9, 2021-03-25 11:35:23.563
246.0, 106837.2421875, 106801.6796875, -187500.015625, 106890.2421875, 106920.078125, 106868.9375, 106842.453125, 106760.6875, -187500.015625, 157144.46875, -187500.015625, -187500.015625, 157286.1875, 157219.84375, -187500.015625, 157219.65625, 0.015132813117816113, 0.9323515953728929, 0.30825000628829, 192.0, 0.0, 0.0, 0.0, 0.0, 0.0, 0.0, 0.0, 0.0, 0.0, 1.6166613235638113E9, 2021-03-25 11:35:23.563
248.0, 106823.09375, 106787.5078125, -187500.015625, 106876.0, 106905.9296875, 106854.8125, 106828.3046875, 106746.3828125, -187500.015625, 157124.328125, -187500.015625, -187500.015625, 157266.0, 157199.59375, -187500.015625, 157199.4375, 0.015132813117816113, 0.9323515953728929, 0.30825000628829, 192.0, 0.0, 0.0, 0.0, 0.0, 0.0, 0.0, 0.0, 0.0, 0.0, 1.6166613235638163E9, 2021-03-25 11:35:23.563
250.0, 106712.4765625, 106676.78125, -187500.015625, 106765.359375, 106795.3359375, 106744.21875, 106717.6640625, 106635.9921875, -187500.015625, 157102.25, -187500.015625, -187500.015625, 157244.0, 157177.625, -187500.015625, 157177.484375, 0.015132813117816113, 0.9323515953728929, 0.30825000628829, 192.0, 0.0, 0.0, 0.0, 0.0, 0.0, 0.0, 0.0, 0.0, 0.0, 1.6166613235638213E9, 2021-03-25 11:35:23.563
252.0, 106732.9921875, 106697.3671875, -187500.015625, 106785.921875, 106815.96875, 106764.828125, 106738.1171875, 106656.484375, -187500.015625, 157083.34375, -187500.015625, -187500.015625, 157224.890625, 157158.546875, -187500.015625, 157158.46875, 0.018566407430625986, 0.9301758141373284, 0.31012500636279583, 192.0, 0.0, 88.0, 14.5, 0.0, 4.5, 96.0, 0.0, 0.0, 0.0, 1.616661323563827E9, 2021-03-25 11:35:23.563
254.0, 106633.21875, 106597.5234375, -187500.015625, 106685.9921875, 106715.984375, 106665.0703125, 106638.3828125, 106556.6640625, -187500.015625, 157061.765625, -187500.015625, -187500.015625, 157203.453125, 157136.984375, -187500.015625, 157136.921875, 0.018566407430625986, 0.9301758141373284, 0.31012500636279583, 192.0, 0.0, 0.0, 0.0, 0.0, 0.0, 0.0, 0.0, 0.0, 0.0, 1.6166613235638332E9, 2021-03-25 11:35:23.563
0.0, 106592.625, 106556.84375, -187500.015625, 106645.375, 106675.4140625, 106624.34375, 106597.8125, 106516.09375, -187500.015625, 157042.03125, -187500.015625, -187500.015625, 157183.65625, 157117.328125, -187500.015625, 157117.21875, 0.018566407430625986, 0.9301758141373284, 0.31012500636279583, 192.0, 0.0, 0.0, 0.0, 0.0, 0.0, 0.0, 0.0, 0.0, 0.0, 1.6166613235638518E9, 2021-03-25 11:35:23.563
2.0, 106579.375, 106543.4765625, -187500.015625, 106632.0546875, 106662.09375, 106611.0234375, 106584.515625, 106502.84375, -187500.015625, 157023.640625, -187500.015625, -187500.015625, 157165.125, 157098.875, -187500.015625, 157098.65625, 0.018566407430625986, 0.9301758141373284, 0.31012500636279583, 192.0, 0.0, 0.0, 0.0, 0.0, 0.0, 0.0, 0.0, 0.0, 0.0, 1.6166613235638583E9, 2021-03-25 11:35:23.563
4.0, 106463.96875, 106428.0703125, -187500.015625, 106516.5625, 106546.5390625, 106495.6640625, 106468.953125, 106387.4375, -187500.015625, 156999.515625, -187500.015625, -187500.015625, 157141.09375, 157074.90625, -187500.015625, 157074.578125, 0.018566407430625986, 0.9301758141373284, 0.31012500636279583, 192.0, 0.0, 0.0, 0.0, 0.0, 0.0, 0.0, 0.0, 0.0, 0.0, 1.6166613235638676E9, 2021-03-25 11:35:23.563
6.0, 106484.78125, 106448.953125, -187500.015625, 106537.421875, 106567.34375, 106516.4765625, 106489.8125, 106408.2734375, -187500.015625, 156978.796875, -187500.015625, -187500.015625, 157120.4375, 157054.109375, -187500.015625, 157053.90625, 0.018283204259205377, 0.931087927572662, 0.30706251319497824, 192.0, 0.0, 72.0, 14.5, 16.0, 4.5, 64.0, 0.0, 0.0, 0.0, 1.6166613235638733E9, 2021-03-25 11:35:23.563
8.0, 106385.6953125, 106349.90625, -187500.015625, 106438.3359375, 106468.328125, 106417.3671875, 106390.7265625, 106309.2734375, -187500.015625, 156957.203125, -187500.015625, -187500.015625, 157098.84375, 157032.515625, -187500.015625, 157032.21875, 0.018283204259205377, 0.931087927572662, 0.30706251319497824, 192.0, 0.0, 0.0, 0.0, 0.0, 0.0, 0.0, 0.0, 0.0, 0.0, 1.6166613235638783E9, 2021-03-25 11:35:23.563
10.0, 106341.484375, 106305.6328125, -187500.015625, 106394.0546875, 106424.140625, 106373.2421875, 106346.4921875, 106265.1484375, -187500.015625, 156937.1875, -187500.015625, -187500.015625, 157078.78125, 157012.53125, -187500.015625, 157012.140625, 0.018283204259205377, 0.931087927572662, 0.30706251319497824, 192.0, 0.0, 0.0, 0.0, 0.0, 0.0, 0.0, 0.0, 0.0, 0.0, 1.6166613235638833E9, 2021-03-25 11:35:23.563
12.0, 106331.578125, 106295.6640625, -187500.015625, 106384.0625, 106414.1015625, 106363.234375, 106336.5, 106255.09375, -187500.015625, 156917.90625, -187500.015625, -187500.015625, 157059.46875, 156993.171875, -187500.015625, 156992.8125, 0.018283204259205377, 0.931087927572662, 0.30706251319497824, 192.0, 0.0, 0.0, 0.0, 0.0, 0.0, 0.0, 0.0, 0.0, 0.0, 1.6166613235638876E9, 2021-03-25 11:35:23.563
14.0, 106215.484375, 106179.609375, -187500.015625, 106268.015625, 106298.1171875, 106247.2265625, 106220.40625, 106139.1796875, -187500.015625, 156897.03125, -187500.015625, -187500.015625, 157038.5625, 156972.34375, -187500.015625, 156971.953125, 0.018283204259205377, 0.931087927572662, 0.30706251319497824, 192.0, 0.0, 0.0, 0.0, 0.0, 0.0, 0.0, 0.0, 0.0, 0.0, 1.6166613235638916E9, 2021-03-25 11:35:23.563
16.0, 106234.28125, 106198.5, -187500.015625, 106286.8984375, 106316.984375, 106266.1796875, 106239.3984375, 106158.015625, -187500.015625, 156873.609375, -187500.015625, -187500.015625, 157015.078125, 156948.890625, -187500.015625, 156948.515625, 0.0171416025095823, 0.9335439883434447, 0.3045312645845115, 192.0, 0.0, 64.0, 14.5, 32.0, 4.5, 56.0, 0.0, 0.0, 0.0, 1.6166613235638964E9, 2021-03-25 11:35:23.563
18.0, 106134.21875, 106098.296875, -187500.015625, 106186.8046875, 106216.78125, 106166.0234375, 106139.203125, 106057.953125, -187500.015625, 156851.46875, -187500.015625, -187500.015625, 156992.96875, 156926.8125, -187500.015625, 156926.421875, 0.0171416025095823, 0.9335439883434447, 0.3045312645845115, 192.0, 0.0, 0.0, 0.0, 0.0, 0.0, 0.0, 0.0, 0.0, 0.0, 1.6166613235639007E9, 2021-03-25 11:35:23.563
20.0, 106093.203125, 106057.2578125, -187500.015625, 106145.75, 106175.7421875, 106124.9375, 106098.1875, 106016.9140625, -187500.015625, 156832.578125, -187500.015625, -187500.015625, 156974.1875, 156908.015625, -187500.015625, 156907.65625, 0.0171416025095823, 0.9335439883434447, 0.3045312645845115, 192.0, 0.0, 0.0, 0.0, 0.0, 0.0, 0.0, 0.0, 0.0, 0.0, 1.6166613235639052E9, 2021-03-25 11:35:23.563
22.0, 106083.09375, 106047.0859375, -187500.015625, 106135.46875, 106165.578125, 106114.765625, 106088.0390625, 106006.6796875, -187500.015625, 156815.515625, -187500.015625, -187500.015625, 156957.09375, 156890.90625, -187500.015625, 156890.53125, 0.0171416025095823, 0.9335439883434447, 0.3045312645845115, 192.0, 0.0, 0.0, 0.0, 0.0, 0.0, 0.0, 0.0, 0.0, 0.0, 1.6166613235639095E9, 2021-03-25 11:35:23.563
24.0, 105965.546875, 105929.4765625, -187500.015625, 106017.921875, 106047.984375, 105997.1953125, 105970.2890625, 105889.28125, -187500.015625, 156790.796875, -187500.015625, -187500.015625, 156932.421875, 156866.21875, -187500.015625, 156865.8125, 0.0171416025095823, 0.9335439883434447, 0.3045312645845115, 192.0, 0.0, 0.0, 0.0, 0.0, 0.0, 0.0, 0.0, 0.0, 0.0, 1.6166613235639136E9, 2021-03-25 11:35:23.563
26.0, 105986.25, 105950.234375, -187500.015625, 106038.6640625, 106068.703125, 106017.984375, 105991.0078125, 105910.0703125, -187500.015625, 156769.875, -187500.015625, -187500.015625, 156911.359375, 156845.21875, -187500.015625, 156844.875, 0.018570801962596306, 0.9367720227819518, 0.3042656423058361, 192.0, 0.0, 80.0, 14.5, 48.0, 4.5, 64.0, 0.0, 0.0, 0.0, 1.6166613235639184E9, 2021-03-25 11:35:23.563
28.0, 105887.5390625, 105851.484375, -187500.015625, 105939.84375, 105969.84375, 105919.171875, 105892.2109375, 105811.3671875, -187500.015625, 156749.53125, -187500.015625, -187500.015625, 156891.109375, 156824.859375, -187500.015625, 156824.53125, 0.018570801962596306, 0.9367720227819518, 0.3042656423058361, 192.0, 0.0, 0.0, 0.0, 0.0, 0.0, 0.0, 0.0, 0.0, 0.0, 1.616661323563923E9, 2021-03-25 11:35:23.563
30.0, 105837.875, 105801.8203125, -187500.015625, 105890.203125, 105920.265625, 105869.59375, 105842.6796875, 105761.859375, -187500.015625, 156725.671875, -187500.015625, -187500.015625, 156867.390625, 156801.125, -187500.015625, 156800.765625, 0.018570801962596306, 0.9367720227819518, 0.3042656423058361, 192.0, 0.0, 0.0, 0.0, 0.0, 0.0, 0.0, 0.0, 0.0, 0.0, 1.6166613235639274E9, 2021-03-25 11:35:23.563
32.0, 105833.0703125, 105797.0390625, -187500.015625, 105885.3984375, 105915.5, 105864.828125, 105837.8984375, 105757.0546875, -187500.015625, 156706.3125, -187500.015625, -187500.015625, 156847.90625, 156781.765625, -187500.015625, 156781.328125, 0.018570801962596306, 0.9367720227819518, 0.3042656423058361, 192.0, 0.0, 0.0, 0.0, 0.0, 0.0, 0.0, 0.0, 0.0, 0.0, 1.6166613235639317E9, 2021-03-25 11:35:23.563
34.0, 105717.53125, 105681.390625, -187500.015625, 105769.75, 105799.8515625, 105749.1171875, 105722.1640625, 105641.4453125, -187500.015625, 156686.84375, -187500.015625, -187500.015625, 156828.46875, 156762.390625, -187500.015625, 156761.828125, 0.018570801962596306, 0.9367720227819518, 0.3042656423058361, 192.0, 0.0, 0.0, 0.0, 0.0, 0.0, 0.0, 0.0, 0.0, 0.0, 1.616661323563938E9, 2021-03-25 11:35:23.563
36.0, 105736.4453125, 105700.2578125, -187500.015625, 105788.7265625, 105818.828125, 105768.046875, 105741.2265625, 105660.421875, -187500.015625, 156666.078125, -187500.015625, -187500.015625, 156807.65625, 156741.609375, -187500.015625, 156741.140625, 0.020285401853016083, 0.9363860359480896, 0.30313282913994044, 192.0, 0.0, 88.0, 14.5, 32.0, 4.5, 56.0, 0.0, 0.0, 0.0, 1.616661323563942E9, 2021-03-25 11:35:23.563
38.0, 105641.15625, 105604.8828125, -187500.015625, 105693.328125, 105723.5234375, 105672.8046875, 105645.78125, 105565.140625, -187500.015625, 156644.28125, -187500.015625, -187500.015625, 156785.796875, 156719.75, -187500.015625, 156719.234375, 0.020285401853016083, 0.9363860359480896, 0.30313282913994044, 192.0, 0.0, 0.0, 0.0, 0.0, 0.0, 0.0, 0.0, 0.0, 0.0, 1.616661323563946E9, 2021-03-25 11:35:23.563
40.0, 105594.0390625, 105557.7890625, -187500.015625, 105646.1640625, 105676.3828125, 105625.671875, 105598.6640625, 105518.0234375, -187500.015625, 156625.546875, -187500.015625, -187500.015625, 156767.15625, 156701.03125, -187500.015625, 156700.515625, 0.020285401853016083, 0.9363860359480896, 0.30313282913994044, 192.0, 0.0, 0.0, 0.0, 0.0, 0.0, 0.0, 0.0, 0.0, 0.0, 1.61666132356395E9, 2021-03-25 11:35:23.563
42.0, 105587.0234375, 105550.8359375, -187500.015625, 105639.1875, 105669.4765625, 105618.671875, 105591.71875, 105511.140625, -187500.015625, 156606.671875, -187500.015625, -187500.015625, 156748.171875, 156682.078125, -187500.015625, 156681.546875, 0.020285401853016083, 0.9363860359480896, 0.30313282913994044, 192.0, 0.0, 0.0, 0.0, 0.0, 0.0, 0.0, 0.0, 0.0, 0.0, 1.6166613235639544E9, 2021-03-25 11:35:23.563
44.0, 105468.203125, 105431.8984375, -187500.015625, 105520.34375, 105550.4296875, 105499.8515625, 105472.7578125, 105392.3359375, -187500.015625, 156581.453125, -187500.015625, -187500.015625, 156722.984375, 156656.984375, -187500.015625, 156656.390625, 0.020285401853016083, 0.9363860359480896, 0.30313282913994044, 192.0, 0.0, 0.0, 0.0, 0.0, 0.0, 0.0, 0.0, 0.0, 0.0, 1.6166613235639584E9, 2021-03-25 11:35:23.563
46.0, 105487.84375, 105451.5703125, -187500.015625, 105539.9296875, 105570.015625, 105519.453125, 105492.4765625, 105412.0078125, -187500.015625, 156561.046875, -187500.015625, -187500.015625, 156702.546875, 156636.453125, -187500.015625, 156635.875, 0.019142701470400425, 0.9341930384780426, 0.30456642661010846, 192.0, 0.0, 72.0, 14.5, 16.0, 4.5, 72.0, 0.0, 0.0, 0.0, 1.6166613235639625E9, 2021-03-25 11:35:23.563
48.0, 105393.4296875, 105357.1796875, -187500.015625, 105445.421875, 105475.6640625, 105425.0390625, 105397.9921875, 105317.640625, -187500.015625, 156540.078125, -187500.015625, -187500.015625, 156681.609375, 156615.5, -187500.015625, 156614.890625, 0.019142701470400425, 0.9341930384780426, 0.30456642661010846, 192.0, 0.0, 0.0, 0.0, 0.0, 0.0, 0.0, 0.0, 0.0, 0.0, 1.6166613235639668E9, 2021-03-25 11:35:23.563
50.0, 105342.203125, 105305.90625, -187500.015625, 105394.125, 105424.4140625, 105373.8984375, 105346.765625, 105266.4296875, -187500.015625, 156518.21875, -187500.015625, -187500.015625, 156659.890625, 156593.796875, -187500.015625, 156593.03125, 0.019142701470400425, 0.9341930384780426, 0.30456642661010846, 192.0, 0.0, 0.0, 0.0, 0.0, 0.0, 0.0, 0.0, 0.0, 0.0, 1.6166613235639708E9, 2021-03-25 11:35:23.563
52.0, 105338.4921875, 105302.21875, -187500.015625, 105390.53125, 105420.7734375, 105370.2578125, 105343.078125, 105262.71875, -187500.015625, 156497.953125, -187500.015625, -187500.015625, 156639.640625, 156573.5, -187500.015625, 156572.84375, 0.019142701470400425, 0.9341930384780426, 0.30456642661010846, 192.0, 0.0, 0.0, 0.0, 0.0, 0.0, 0.0, 0.0, 0.0, 0.0, 1.616661323563976E9, 2021-03-25 11:35:23.563
54.0, 105222.21875, 105185.7890625, -187500.015625, 105274.1875, 105304.3828125, 105253.8671875, 105226.6640625, 105146.421875, -187500.015625, 156476.53125, -187500.015625, -187500.015625, 156618.203125, 156552.15625, -187500.015625, 156551.5, 0.019142701470400425, 0.9341930384780426, 0.30456642661010846, 192.0, 0.0, 0.0, 0.0, 0.0, 0.0, 0.0, 0.0, 0.0, 0.0, 1.61666132356398E9, 2021-03-25 11:35:23.563
56.0, 105243.2265625, 105206.8671875, -187500.015625, 105295.0859375, 105325.484375, 105274.8125, 105247.71875, 105167.4375, -187500.015625, 156457.90625, -187500.015625, -187500.015625, 156599.515625, 156533.546875, -187500.015625, 156532.765625, 0.01957135144300537, 0.9340965268684158, 0.30728321449714713, 192.0, 0.0, 80.0, 14.5, 24.0, 4.5, 88.0, 0.0, 0.0, 0.0, 1.616661323563984E9, 2021-03-25 11:35:23.563
58.0, 105150.15625, 105113.703125, -187500.015625, 105201.9453125, 105232.234375, 105181.765625, 105154.5859375, 105074.34375, -187500.015625, 156437.703125, -187500.015625, -187500.015625, 156579.390625, 156513.234375, -187500.015625, 156512.609375, 0.01957135144300537, 0.9340965268684158, 0.30728321449714713, 192.0, 0.0, 0.0, 0.0, 0.0, 0.0, 0.0, 0.0, 0.0, 0.0, 1.6166613235639887E9, 2021-03-25 11:35:23.563
60.0, 105096.828125, 105060.4375, -187500.015625, 105148.65625, 105178.921875, 105128.5, 105101.3203125, 105021.1015625, -187500.015625, 156415.671875, -187500.015625, -187500.015625, 156557.328125, 156491.21875, -187500.015625, 156490.546875, 0.01957135144300537, 0.9340965268684158, 0.30728321449714713, 192.0, 0.0, 0.0, 0.0, 0.0, 0.0, 0.0, 0.0, 0.0, 0.0, 1.6166613235639925E9, 2021-03-25 11:35:23.563
62.0, 105094.7265625, 105058.3359375, -187500.015625, 105146.578125, 105176.890625, 105126.4609375, 105099.2421875, 105019.0390625, -187500.015625, 156393.546875, -187500.015625, -187500.015625, 156535.1875, 156469.15625, -187500.015625, 156468.375, 0.01957135144300537, 0.9340965268684158, 0.30728321449714713, 192.0, 0.0, 0.0, 0.0, 0.0, 0.0, 0.0, 0.0, 0.0, 0.0, 1.6166613235639982E9, 2021-03-25 11:35:23.563
64.0, 104981.46875, 104944.9921875, -187500.015625, 105033.28125, 105063.65625, 105013.2265625, 104985.9140625, 104905.8515625, -187500.015625, 156374.75, -187500.015625, -187500.015625, 156516.546875, 156450.515625, -187500.015625, 156449.828125, 0.01957135144300537, 0.9340965268684158, 0.30728321449714713, 192.0, 0.0, 0.0, 0.0, 0.0, 0.0, 0.0, 0.0, 0.0, 0.0, 1.6166613235640023E9, 2021-03-25 11:35:23.564
66.0, 104999.6875, 104963.25, -187500.015625, 105051.453125, 105081.8046875, 105031.2890625, 105004.1328125, 104924.0703125, -187500.015625, 156355.765625, -187500.015625, -187500.015625, 156497.390625, 156431.453125, -187500.015625, 156430.640625, 0.017785676101482295, 0.9310482798850899, 0.3066416192887118, 192.0, 0.0, 64.0, 14.5, 0.0, 4.5, 72.0, 0.0, 0.0, 0.0, 1.6166613235640063E9, 2021-03-25 11:35:23.564
68.0, 104908.203125, 104871.6328125, -187500.015625, 104959.96875, 104990.2265625, 104939.828125, 104912.5546875, 104832.625, -187500.015625, 156334.53125, -187500.015625, -187500.015625, 156476.25, 156410.171875, -187500.015625, 156409.453125, 0.017785676101482295, 0.9310482798850899, 0.3066416192887118, 192.0, 0.0, 0.0, 0.0, 0.0, 0.0, 0.0, 0.0, 0.0, 0.0, 1.6166613235640116E9, 2021-03-25 11:35:23.564
70.0, 104854.109375, 104817.5625, -187500.015625, 104905.71875, 104936.046875, 104885.7109375, 104858.46875, 104778.4921875, -187500.015625, 156311.890625, -187500.015625, -187500.015625, 156453.59375, 156387.703125, -187500.015625, 156386.875, 0.017785676101482295, 0.9310482798850899, 0.3066416192887118, 192.0, 0.0, 0.0, 0.0, 0.0, 0.0, 0.0, 0.0, 0.0, 0.0, 1.616661323564016E9, 2021-03-25 11:35:23.564
