%OpenBCI Raw EEG Data
%Number of channels = 16
%Sample Rate = 125 Hz
%Board = OpenBCI_GUI$BoardCytonSerialDaisy
Sample Index, EXG Channel 0, EXG Channel 1, EXG Channel 2, EXG Channel 3, EXG Channel 4, EXG Channel 5, EXG Channel 6, EXG Channel 7, EXG Channel 8, EXG Channel 9, EXG Channel 10, EXG Channel 11, EXG Channel 12, EXG Channel 13, EXG Channel 14, EXG Channel 15, Accel Channel 0, Accel Channel 1, Accel Channel 2, Other, Other, Other, Other, Other, Other, Other, Analog Channel 0, Analog Channel 1, Analog Channel 2, Timestamp, Timestamp (Formatted)
60.0, 187500.0, -33707.4140625, 187500.0, -53380.32421875, 16290.21875, 187500.0, -60568.95703125, 187500.0, 187500.0, 187500.0, 187500.0, 14233.6123046875, 187500.0, 187500.0, -184580.96875, -186469.265625, -0.014000000432133675, 0.9540000557899475, 0.12200000882148743, 192.0, 127.5, 72.0, 14.5, 104.0, 1.5, 104.0, 0.0, 0.0, 0.0, 1.6170057024258764E9, 2021-03-29 11:15:02.425
62.0, 187500.0, -33615.3671875, 187500.0, -53109.0390625, 16629.919921875, 187500.0, -61452.5859375, 187500.0, 187500.0, 187500.0, 187500.0, 13936.1337890625, 187500.0, 187500.0, -185746.96875, -186492.78125, -0.014000000432133675, 0.9540000557899475, 0.12200000882148743, 192.0, 0.0, 0.0, 0.0, 0.0, 0.0, 0.0, 0.0, 0.0, 0.0, 1.6170057024258816E9, 2021-03-29 11:15:02.425
64.0, 187500.0, -34177.42578125, 187500.0, -53361.01171875, 16414.0703125, 187500.0, -61207.96875, 187500.0, 187500.0, 187500.0, 187500.0, 12637.2060546875, 187500.0, 187500.0, -185581.28125, -186515.0625, -0.014000000432133675, 0.9540000557899475, 0.12200000882148743, 192.0, 0.0, 0.0, 0.0, 0.0, 0.0, 0.0, 0.0, 0.0, 0.0, 1.6170057024258864E9, 2021-03-29 11:15:02.425
66.0, 187500.0, -33297.81640625, 187500.0, -53294.04296875, 16360.4482421875, 187500.0, -62135.94921875, 187500.0, 187500.0, 187500.0, 187500.0, 11599.8623046875, 187500.0, 187500.0, -185716.1875, -186539.984375, -0.014000000432133675, 0.9540000557899475, 0.12200000882148743, 192.0, 0.0, 0.0, 0.0, 0.0, 0.0, 0.0, 0.0, 0.0, 0.0, 1.6170057024258912E9, 2021-03-29 11:15:02.425
68.0, 187500.0, -34174.33984375, 187500.0, -53112.6171875, 16724.111328125, 187500.0, -62340.375, 187500.0, 187500.0, 187500.0, 187500.0, 11189.796875, 187500.0, 187500.0, -186504.9375, -186564.125, -0.014000000432133675, 0.9540000557899475, 0.12200000882148743, 192.0, 0.0, 0.0, 0.0, 0.0, 0.0, 0.0, 0.0, 0.0, 0.0, 1.617005702425896E9, 2021-03-29 11:15:02.425
70.0, 187500.0, -33668.69921875, 187500.0, -53297.2421875, 16424.462890625, 187500.0, -62721.85546875, 187500.0, 187500.0, 187500.0, 187500.0, 9443.41015625, 187500.0, 187500.0, -186306.078125, -186585.25, -0.01600000075995922, 0.9580000638961792, 0.1120000034570694, 192.0, 127.5, 64.0, 14.5, 120.0, 1.5, 64.0, 0.0, 0.0, 0.0, 1.6170057024259007E9, 2021-03-29 11:15:02.425
72.0, 187500.0, -33586.87109375, 187500.0, -53053.47265625, 16727.576171875, 187500.0, -63709.53125, 187500.0, 187500.0, 187500.0, 187500.0, 9094.96875, 187500.0, 187500.0, -186634.84375, -186611.25, -0.01600000075995922, 0.9580000638961792, 0.1120000034570694, 192.0, 0.0, 0.0, 0.0, 0.0, 0.0, 0.0, 0.0, 0.0, 0.0, 1.6170057024259057E9, 2021-03-29 11:15:02.425
74.0, 187500.0, -34046.2421875, 187500.0, -53163.2421875, 16658.46484375, 187500.0, -63606.9609375, 187500.0, 187500.0, 187500.0, 187500.0, 7737.03369140625, 187500.0, 187500.0, -186673.6875, -186633.9375, -0.01600000075995922, 0.9580000638961792, 0.1120000034570694, 192.0, 0.0, 0.0, 0.0, 0.0, 0.0, 0.0, 0.0, 0.0, 0.0, 1.6170057024259105E9, 2021-03-29 11:15:02.425
76.0, 187500.0, -33194.55078125, 187500.0, -53136.0625, 16591.251953125, 187500.0, -64612.56640625, 187500.0, 187500.0, 187500.0, 187500.0, 6633.4609375, 187500.0, 187500.0, -186697.359375, -186656.421875, -0.01600000075995922, 0.9580000638961792, 0.1120000034570694, 192.0, 0.0, 0.0, 0.0, 0.0, 0.0, 0.0, 0.0, 0.0, 0.0, 1.6170057024259193E9, 2021-03-29 11:15:02.425
78.0, 187500.0, -34038.734375, 187500.0, -52993.01171875, 16939.134765625, 187500.0, -64856.2890625, 187500.0, 187500.0, 187500.0, 187500.0, 6222.81494140625, 187500.0, 187500.0, -186722.171875, -186677.25, -0.01600000075995922, 0.9580000638961792, 0.1120000034570694, 192.0, 0.0, 0.0, 0.0, 0.0, 0.0, 0.0, 0.0, 0.0, 0.0, 1.6170057024259238E9, 2021-03-29 11:15:02.425
80.0, 187500.0, -33602.6953125, 187500.0, -53230.34375, 16601.958984375, 187500.0, -65199.9921875, 187500.0, 187500.0, 187500.0, 187500.0, 4473.388671875, 187500.0, 187500.0, -186743.828125, -186701.75, -0.014000000432133675, 0.9580000638961792, 0.11600000411272049, 192.0, 127.5, 72.0, 14.5, 120.0, 1.5, 80.0, 0.0, 0.0, 0.0, 1.6170057024259284E9, 2021-03-29 11:15:02.425
82.0, 187500.0, -33525.71484375, 187500.0, -53024.5703125, 16897.13671875, 187500.0, -66152.1328125, 187500.0, 187500.0, 187500.0, 187500.0, 4133.1728515625, 187500.0, 187500.0, -186768.953125, -186723.96875, -0.014000000432133675, 0.9580000638961792, 0.11600000411272049, 192.0, 0.0, 0.0, 0.0, 0.0, 0.0, 0.0, 0.0, 0.0, 0.0, 1.617005702425933E9, 2021-03-29 11:15:02.425
84.0, 187500.0, -34068.4140625, 187500.0, -53221.53515625, 16767.853515625, 187500.0, -65963.4609375, 187500.0, 187500.0, 187500.0, 187500.0, 2834.49169921875, 187500.0, 187500.0, -186791.203125, -186747.25, -0.014000000432133675, 0.9580000638961792, 0.11600000411272049, 192.0, 0.0, 0.0, 0.0, 0.0, 0.0, 0.0, 0.0, 0.0, 0.0, 1.6170057024259377E9, 2021-03-29 11:15:02.425
86.0, 187500.0, -33307.67578125, 187500.0, -53269.5234375, 16603.478515625, 187500.0, -66826.3515625, 187500.0, 187500.0, 187500.0, 187500.0, 1826.2044677734375, 187500.0, 187500.0, -186813.28125, -186769.53125, -0.014000000432133675, 0.9580000638961792, 0.11600000411272049, 192.0, 0.0, 0.0, 0.0, 0.0, 0.0, 0.0, 0.0, 0.0, 0.0, 1.617005702425942E9, 2021-03-29 11:15:02.425
88.0, 187500.0, -34158.984375, 187500.0, -53124.73046875, 16935.71484375, 187500.0, -66940.03125, 187500.0, 187500.0, 187500.0, 187500.0, 1490.458984375, 187500.0, 187500.0, -186835.96875, -186790.265625, -0.014000000432133675, 0.9580000638961792, 0.11600000411272049, 192.0, 0.0, 0.0, 0.0, 0.0, 0.0, 0.0, 0.0, 0.0, 0.0, 1.6170057024259465E9, 2021-03-29 11:15:02.425
90.0, 187500.0, -33814.5, 187500.0, -53431.12890625, 16525.5390625, 187500.0, -67048.65625, 187500.0, 187500.0, 187500.0, 187500.0, -185.60888671875, 187500.0, 187500.0, -186857.09375, -186813.640625, -0.014000000432133675, 0.956000030040741, 0.1120000034570694, 192.0, 127.5, 72.0, 14.5, 112.0, 1.5, 64.0, 0.0, 0.0, 0.0, 1.617005702425951E9, 2021-03-29 11:15:02.425
92.0, 187500.0, -33713.24609375, 187500.0, -53235.9296875, 16794.2734375, 187500.0, -67756.828125, 187500.0, 187500.0, 187500.0, 187500.0, -426.7618408203125, 187500.0, 187500.0, -186881.234375, -186836.140625, -0.014000000432133675, 0.956000030040741, 0.1120000034570694, 192.0, 0.0, 0.0, 0.0, 0.0, 0.0, 0.0, 0.0, 0.0, 0.0, 1.6170057024259555E9, 2021-03-29 11:15:02.425
94.0, 187500.0, -34275.99609375, 187500.0, -53442.21484375, 16640.828125, 187500.0, -67270.453125, 187500.0, 187500.0, 187500.0, 187500.0, -1612.0301513671875, 187500.0, 187500.0, -186901.609375, -186857.71875, -0.014000000432133675, 0.956000030040741, 0.1120000034570694, 192.0, 0.0, 0.0, 0.0, 0.0, 0.0, 0.0, 0.0, 0.0, 0.0, 1.6170057024259624E9, 2021-03-29 11:15:02.425
96.0, 187500.0, -33585.796875, 187500.0, -53578.29296875, 16402.513671875, 187500.0, -67770.328125, 187500.0, 187500.0, 187500.0, 187500.0, -2601.653564453125, 187500.0, 187500.0, -186923.625, -186880.5, -0.014000000432133675, 0.956000030040741, 0.1120000034570694, 192.0, 0.0, 0.0, 0.0, 0.0, 0.0, 0.0, 0.0, 0.0, 0.0, 1.6170057024259667E9, 2021-03-29 11:15:02.425
98.0, 187500.0, -34443.859375, 187500.0, -53484.234375, 16700.41796875, 187500.0, -67553.2734375, 187500.0, 187500.0, 187500.0, 187500.0, -2813.346923828125, 187500.0, 187500.0, -186946.9375, -186902.53125, -0.014000000432133675, 0.956000030040741, 0.1120000034570694, 192.0, 0.0, 0.0, 0.0, 0.0, 0.0, 0.0, 0.0, 0.0, 0.0, 1.6170057024259713E9, 2021-03-29 11:15:02.425
100.0, 187500.0, -34159.5, 187500.0, -53845.73046875, 16217.5087890625, 187500.0, -67310.1953125, 187500.0, 187500.0, 187500.0, 187500.0, -4406.19921875, 187500.0, 187500.0, -186967.953125, -186926.375, -0.01600000075995922, 0.9500000476837158, 0.1120000034570694, 192.0, 127.5, 64.0, 14.5, 88.0, 1.5, 64.0, 0.0, 0.0, 0.0, 1.6170057024259756E9, 2021-03-29 11:15:02.425
102.0, 187500.0, -34028.51953125, 187500.0, -53650.578125, 16463.84765625, 187500.0, -67687.7890625, 187500.0, 187500.0, 187500.0, 187500.0, -4575.15625, 187500.0, 187500.0, -186990.4375, -186947.65625, -0.01600000075995922, 0.9500000476837158, 0.1120000034570694, 192.0, 0.0, 0.0, 0.0, 0.0, 0.0, 0.0, 0.0, 0.0, 0.0, 1.61700570242598E9, 2021-03-29 11:15:02.425
104.0, 187500.0, -34724.88671875, 187500.0, -53979.3046875, 16171.12890625, 187500.0, -66842.265625, 187500.0, 187500.0, 187500.0, 187500.0, -5652.7333984375, 187500.0, 187500.0, -187011.9375, -186971.109375, -0.01600000075995922, 0.9500000476837158, 0.1120000034570694, 192.0, 0.0, 0.0, 0.0, 0.0, 0.0, 0.0, 0.0, 0.0, 0.0, 1.6170057024259844E9, 2021-03-29 11:15:02.425
106.0, 187500.0, -34016.3828125, 187500.0, -54057.87109375, 15982.279296875, 187500.0, -67035.359375, 187500.0, 187500.0, 187500.0, 187500.0, -6579.548828125, 187500.0, 187500.0, -187036.1875, -186996.9375, -0.01600000075995922, 0.9500000476837158, 0.1120000034570694, 192.0, 0.0, 0.0, 0.0, 0.0, 0.0, 0.0, 0.0, 0.0, 0.0, 1.617005702425989E9, 2021-03-29 11:15:02.425
108.0, 187500.0, -34860.2265625, 187500.0, -53971.234375, 16271.8232421875, 187500.0, -66591.5234375, 187500.0, 187500.0, 187500.0, 187500.0, -6719.93994140625, 187500.0, 187500.0, -187058.171875, -187017.703125, -0.01600000075995922, 0.9500000476837158, 0.1120000034570694, 192.0, 0.0, 0.0, 0.0, 0.0, 0.0, 0.0, 0.0, 0.0, 0.0, 1.6170057024259932E9, 2021-03-29 11:15:02.425
110.0, 187500.0, -34591.55859375, 187500.0, -54312.703125, 15817.748046875, 187500.0, -66154.453125, 187500.0, 187500.0, 187500.0, 187500.0, -8272.134765625, 187500.0, 187500.0, -187079.71875, -187044.484375, -0.012000000104308128, 0.9540000557899475, 0.11600000411272049, 192.0, 127.5, 80.0, 14.5, 104.0, 1.5, 80.0, 0.0, 0.0, 0.0, 1.6170057024259975E9, 2021-03-29 11:15:02.425
112.0, 187500.0, -34443.72265625, 187500.0, -54087.3515625, 16093.478515625, 187500.0, -66431.5703125, 187500.0, 187500.0, 187500.0, 187500.0, -8414.984375, 187500.0, 187500.0, -187103.265625, -187066.5, -0.012000000104308128, 0.9540000557899475, 0.11600000411272049, 192.0, 0.0, 0.0, 0.0, 0.0, 0.0, 0.0, 0.0, 0.0, 0.0, 1.617005702426002E9, 2021-03-29 11:15:02.426
114.0, 187500.0, -35061.50390625, 187500.0, -54323.56640625, 15906.08203125, 187500.0, -65606.1640625, 187500.0, 187500.0, 187500.0, 187500.0, -9456.396484375, 187500.0, 187500.0, -187098.125, -187086.9375, -0.012000000104308128, 0.9540000557899475, 0.11600000411272049, 192.0, 0.0, 0.0, 0.0, 0.0, 0.0, 0.0, 0.0, 0.0, 0.0, 1.6170057024260063E9, 2021-03-29 11:15:02.426
116.0, 187500.0, -34353.4453125, 187500.0, -54404.5, 15709.1181640625, 187500.0, -65839.8515625, 187500.0, 187500.0, 187500.0, 187500.0, -10384.8212890625, 187500.0, 187500.0, -187026.296875, -187106.625, -0.012000000104308128, 0.9540000557899475, 0.11600000411272049, 192.0, 0.0, 0.0, 0.0, 0.0, 0.0, 0.0, 0.0, 0.0, 0.0, 1.6170057024260108E9, 2021-03-29 11:15:02.426
118.0, 187500.0, -35164.58984375, 187500.0, -54265.2734375, 16035.0517578125, 187500.0, -65509.875, 187500.0, 187500.0, 187500.0, 187500.0, -10469.310546875, 187500.0, 187500.0, -187042.15625, -187126.296875, -0.012000000104308128, 0.9540000557899475, 0.11600000411272049, 192.0, 0.0, 0.0, 0.0, 0.0, 0.0, 0.0, 0.0, 0.0, 0.0, 1.6170057024260151E9, 2021-03-29 11:15:02.426
120.0, 187500.0, -34819.92578125, 187500.0, -54463.64453125, 15718.662109375, 187500.0, -65214.09375, 187500.0, 187500.0, 187500.0, 187500.0, -11998.6845703125, 187500.0, 187500.0, -186134.921875, -187142.921875, -0.018000001087784767, 0.9520000219345093, 0.11800000816583633, 192.0, 127.5, 56.0, 14.5, 96.0, 1.5, 88.0, 0.0, 0.0, 0.0, 1.6170057024260197E9, 2021-03-29 11:15:02.426
122.0, 187500.0, -34581.34375, 187500.0, -54186.2578125, 16038.6943359375, 187500.0, -65670.8125, 187500.0, 187500.0, 187500.0, 187500.0, -12104.408203125, 187500.0, 187500.0, -186539.65625, -187156.6875, -0.018000001087784767, 0.9520000219345093, 0.11800000816583633, 192.0, 0.0, 0.0, 0.0, 0.0, 0.0, 0.0, 0.0, 0.0, 0.0, 1.617005702426024E9, 2021-03-29 11:15:02.426
124.0, 187500.0, -35258.2421875, 187500.0, -54435.390625, 15839.2275390625, 187500.0, -65015.56640625, 187500.0, 187500.0, 187500.0, 187500.0, -13103.28515625, 187500.0, 187500.0, -185912.1875, -187173.953125, -0.018000001087784767, 0.9520000219345093, 0.11800000816583633, 192.0, 0.0, 0.0, 0.0, 0.0, 0.0, 0.0, 0.0, 0.0, 0.0, 1.6170057024260285E9, 2021-03-29 11:15:02.426
126.0, 187500.0, -34457.0234375, 187500.0, -54384.875, 15775.033203125, 187500.0, -65415.6640625, 187500.0, 187500.0, 187500.0, 187500.0, -14044.271484375, 187500.0, 187500.0, -185379.84375, -187189.59375, -0.018000001087784767, 0.9520000219345093, 0.11800000816583633, 192.0, 0.0, 0.0, 0.0, 0.0, 0.0, 0.0, 0.0, 0.0, 0.0, 1.6170057024260328E9, 2021-03-29 11:15:02.426
128.0, 187500.0, -35179.23046875, 187500.0, -54146.47265625, 16204.0087890625, 187500.0, -65313.3359375, 187500.0, 187500.0, 187500.0, 187500.0, -14131.1298828125, 187500.0, 187500.0, -186031.328125, -187205.3125, -0.018000001087784767, 0.9520000219345093, 0.11800000816583633, 192.0, 0.0, 0.0, 0.0, 0.0, 0.0, 0.0, 0.0, 0.0, 0.0, 1.6170057024260385E9, 2021-03-29 11:15:02.426
130.0, 187500.0, -34818.65234375, 187500.0, -54334.47265625, 15891.1513671875, 187500.0, -65213.91796875, 187500.0, 187500.0, 187500.0, 187500.0, -15700.69140625, 187500.0, 187500.0, -184879.359375, -187220.5, -0.01600000075995922, 0.9540000557899475, 0.12000000476837158, 192.0, 127.5, 64.0, 14.5, 104.0, 1.5, 96.0, 0.0, 0.0, 0.0, 1.6170057024260428E9, 2021-03-29 11:15:02.426
132.0, 187500.0, -34571.1953125, 187500.0, -54028.8125, 16245.6943359375, 187500.0, -65902.7265625, 187500.0, 187500.0, 187500.0, 187500.0, -15859.12109375, 187500.0, 187500.0, -185554.65625, -187234.921875, -0.01600000075995922, 0.9540000557899475, 0.12000000476837158, 192.0, 0.0, 0.0, 0.0, 0.0, 0.0, 0.0, 0.0, 0.0, 0.0, 1.617005702426047E9, 2021-03-29 11:15:02.426
134.0, 187500.0, -35223.93359375, 187500.0, -54203.42578125, 16147.2568359375, 187500.0, -65551.4921875, 187500.0, 187500.0, 187500.0, 187500.0, -16932.16015625, 187500.0, 187500.0, -185246.453125, -187251.953125, -0.01600000075995922, 0.9540000557899475, 0.12000000476837158, 192.0, 0.0, 0.0, 0.0, 0.0, 0.0, 0.0, 0.0, 0.0, 0.0, 1.6170057024260516E9, 2021-03-29 11:15:02.426
136.0, 187500.0, -34318.10546875, 187500.0, -54047.54296875, 16181.4775390625, 187500.0, -66284.5, 187500.0, 187500.0, 187500.0, 187500.0, -17991.34375, 187500.0, 187500.0, -185103.625, -187268.65625, -0.01600000075995922, 0.9540000557899475, 0.12000000476837158, 192.0, 0.0, 0.0, 0.0, 0.0, 0.0, 0.0, 0.0, 0.0, 0.0, 1.617005702426056E9, 2021-03-29 11:15:02.426
138.0, 187500.0, -34980.32421875, 187500.0, -53773.4453125, 16659.0, 187500.0, -66603.0078125, 187500.0, 187500.0, 187500.0, 187500.0, -18161.41796875, 187500.0, 187500.0, -186182.453125, -187281.484375, -0.01600000075995922, 0.9540000557899475, 0.12000000476837158, 192.0, 0.0, 0.0, 0.0, 0.0, 0.0, 0.0, 0.0, 0.0, 0.0, 1.6170057024260604E9, 2021-03-29 11:15:02.426
140.0, 187500.0, -34586.41796875, 187500.0, -53892.66796875, 16436.376953125, 187500.0, -66953.125, 187500.0, 187500.0, 187500.0, 187500.0, -19856.953125, 187500.0, 187500.0, -185559.453125, -187296.703125, -0.012000000104308128, 0.9540000557899475, 0.12200000882148743, 192.0, 127.5, 80.0, 14.5, 104.0, 1.5, 104.0, 0.0, 0.0, 0.0, 1.6170057024260647E9, 2021-03-29 11:15:02.426
142.0, 187500.0, -34191.28515625, 187500.0, -53508.66796875, 16865.10546875, 187500.0, -68141.4609375, 187500.0, 187500.0, 187500.0, 187500.0, -20159.685546875, 187500.0, 187500.0, -186697.828125, -187313.046875, -0.012000000104308128, 0.9540000557899475, 0.12200000882148743, 192.0, 0.0, 0.0, 0.0, 0.0, 0.0, 0.0, 0.0, 0.0, 0.0, 1.6170057024260693E9, 2021-03-29 11:15:02.426
144.0, 187500.0, -34653.7421875, 187500.0, -53495.90234375, 16958.736328125, 187500.0, -68406.2578125, 187500.0, 187500.0, 187500.0, 187500.0, -21343.501953125, 187500.0, 187500.0, -187179.296875, -187331.21875, -0.012000000104308128, 0.9540000557899475, 0.12200000882148743, 192.0, 0.0, 0.0, 0.0, 0.0, 0.0, 0.0, 0.0, 0.0, 0.0, 1.6170057024260736E9, 2021-03-29 11:15:02.426
146.0, 187500.0, -33753.76953125, 187500.0, -53339.3515625, 16985.783203125, 187500.0, -69764.9296875, 187500.0, 187500.0, 187500.0, 187500.0, -22582.63671875, 187500.0, 187500.0, -187338.53125, -187345.609375, -0.012000000104308128, 0.9540000557899475, 0.12200000882148743, 192.0, 0.0, 0.0, 0.0, 0.0, 0.0, 0.0, 0.0, 0.0, 0.0, 1.617005702426078E9, 2021-03-29 11:15:02.426
148.0, 187500.0, -34255.9453125, 187500.0, -52850.25, 17670.55078125, 187500.0, -70893.6484375, 187500.0, 187500.0, 187500.0, 187500.0, -22936.5546875, 187500.0, 187500.0, -187394.734375, -187358.75, -0.012000000104308128, 0.9540000557899475, 0.12200000882148743, 192.0, 0.0, 0.0, 0.0, 0.0, 0.0, 0.0, 0.0, 0.0, 0.0, 1.6170057024260824E9, 2021-03-29 11:15:02.426
150.0, 187500.0, -33731.640625, 187500.0, -52753.66796875, 17647.662109375, 187500.0, -72305.140625, 187500.0, 187500.0, 187500.0, 187500.0, -24924.294921875, 187500.0, 187500.0, -187407.5625, -187371.46875, -0.014000000432133675, 0.9600000381469727, 0.11600000411272049, 192.0, 127.5, 72.0, 15.0, 0.0, 1.5, 80.0, 0.0, 0.0, 0.0, 1.617005702426087E9, 2021-03-29 11:15:02.426
152.0, 187500.0, -33209.328125, 187500.0, -52244.49609375, 18209.474609375, 187500.0, -74502.5625, 187500.0, 187500.0, 187500.0, 187500.0, -25589.595703125, 187500.0, 187500.0, -187420.90625, -187381.28125, -0.014000000432133675, 0.9600000381469727, 0.11600000411272049, 192.0, 0.0, 0.0, 0.0, 0.0, 0.0, 0.0, 0.0, 0.0, 0.0, 1.6170057024260912E9, 2021-03-29 11:15:02.426
154.0, 187500.0, -33614.8984375, 187500.0, -52144.42578125, 18395.552734375, 187500.0, -75547.90625, 187500.0, 187500.0, 187500.0, 187500.0, -27039.171875, 187500.0, 187500.0, -187436.25, -187395.5625, -0.014000000432133675, 0.9600000381469727, 0.11600000411272049, 192.0, 0.0, 0.0, 0.0, 0.0, 0.0, 0.0, 0.0, 0.0, 0.0, 1.6170057024260955E9, 2021-03-29 11:15:02.426
156.0, 187500.0, -32784.421875, 187500.0, -52135.28515625, 18278.71875, 187500.0, -77249.28125, 187500.0, 187500.0, 187500.0, 187500.0, -28497.087890625, 187500.0, 187500.0, -187447.9375, -187406.625, -0.014000000432133675, 0.9600000381469727, 0.11600000411272049, 192.0, 0.0, 0.0, 0.0, 0.0, 0.0, 0.0, 0.0, 0.0, 0.0, 1.6170057024261E9, 2021-03-29 11:15:02.426
158.0, 187500.0, -33470.41796875, 187500.0, -51905.2421875, 18714.17578125, 187500.0, -78346.390625, 187500.0, 187500.0, 187500.0, 187500.0, -28895.75390625, 187500.0, 187500.0, -187463.46875, -187420.359375, -0.014000000432133675, 0.9600000381469727, 0.11600000411272049, 192.0, 0.0, 0.0, 0.0, 0.0, 0.0, 0.0, 0.0, 0.0, 0.0, 1.6170057024261043E9, 2021-03-29 11:15:02.426
160.0, 187500.0, -33190.796875, 187500.0, -52143.0625, 18374.5859375, 187500.0, -79248.0859375, 187500.0, 187500.0, 187500.0, 187500.0, -30828.619140625, 187500.0, 187500.0, -187476.328125, -187433.921875, -0.010000000707805157, 0.956000030040741, 0.12000000476837158, 192.0, 127.5, 88.0, 14.5, 112.0, 1.5, 96.0, 0.0, 0.0, 0.0, 1.6170057024261088E9, 2021-03-29 11:15:02.426
162.0, 187500.0, -32918.75390625, 187500.0, -51907.0078125, 18661.359375, 187500.0, -80830.4296875, 187500.0, 187500.0, 187500.0, 187500.0, -31302.365234375, 187500.0, 187500.0, -187491.25, -187447.515625, -0.010000000707805157, 0.956000030040741, 0.12000000476837158, 192.0, 0.0, 0.0, 0.0, 0.0, 0.0, 0.0, 0.0, 0.0, 0.0, 1.6170057024261146E9, 2021-03-29 11:15:02.426
164.0, 187500.0, -33490.80078125, 187500.0, -51947.84375, 18705.794921875, 187500.0, -81490.5234375, 187500.0, 187500.0, 187500.0, 187500.0, -32583.27734375, 187500.0, 187500.0, -187500.015625, -187461.390625, -0.010000000707805157, 0.956000030040741, 0.12000000476837158, 192.0, 0.0, 0.0, 0.0, 0.0, 0.0, 0.0, 0.0, 0.0, 0.0, 1.617005702426119E9, 2021-03-29 11:15:02.426
166.0, 187500.0, -32695.4609375, 187500.0, -51943.59765625, 18575.283203125, 187500.0, -82969.3359375, 187500.0, 187500.0, 187500.0, 187500.0, -33957.26171875, 187500.0, 187500.0, -187500.015625, -187473.484375, -0.010000000707805157, 0.956000030040741, 0.12000000476837158, 192.0, 0.0, 0.0, 0.0, 0.0, 0.0, 0.0, 0.0, 0.0, 0.0, 1.6170057024261236E9, 2021-03-29 11:15:02.426
168.0, 187500.0, -33288.65234375, 187500.0, -51633.2421875, 19080.119140625, 187500.0, -83978.515625, 187500.0, 187500.0, 187500.0, 187500.0, -34274.85546875, 187500.0, 187500.0, -187500.015625, -187486.765625, -0.010000000707805157, 0.956000030040741, 0.12000000476837158, 192.0, 0.0, 0.0, 0.0, 0.0, 0.0, 0.0, 0.0, 0.0, 0.0, 1.617005702426128E9, 2021-03-29 11:15:02.426
170.0, 187500.0, -33067.01171875, 187500.0, -51979.046875, 18621.484375, 187500.0, -84674.9296875, 187500.0, 187500.0, 187500.0, 187500.0, -36130.07421875, 187500.0, 187500.0, -187500.015625, -187497.765625, -0.01600000075995922, 0.9520000219345093, 0.11600000411272049, 192.0, 127.5, 64.0, 14.5, 96.0, 1.5, 80.0, 0.0, 0.0, 0.0, 1.6170057024261324E9, 2021-03-29 11:15:02.426
172.0, 187500.0, -32841.7734375, 187500.0, -51877.94921875, 18747.32421875, 187500.0, -85866.546875, 187500.0, 187500.0, 187500.0, 187500.0, -36457.125, 187500.0, 187500.0, -187500.015625, -187500.015625, -0.01600000075995922, 0.9520000219345093, 0.11600000411272049, 192.0, 0.0, 0.0, 0.0, 0.0, 0.0, 0.0, 0.0, 0.0, 0.0, 1.6170057024261367E9, 2021-03-29 11:15:02.426
174.0, 187500.0, -33516.10546875, 187500.0, -52066.8203125, 18639.767578125, 187500.0, -86002.6015625, 187500.0, 187500.0, 187500.0, 187500.0, -37534.45703125, 187500.0, 187500.0, -187500.015625, -187500.015625, -0.01600000075995922, 0.9520000219345093, 0.11600000411272049, 192.0, 0.0, 0.0, 0.0, 0.0, 0.0, 0.0, 0.0, 0.0, 0.0, 1.6170057024261413E9, 2021-03-29 11:15:02.426
176.0, 187500.0, -32853.10546875, 187500.0, -52202.54296875, 18342.51171875, 187500.0, -86890.390625, 187500.0, 187500.0, 187500.0, 187500.0, -38734.9921875, 187500.0, 187500.0, -187500.015625, -187500.015625, -0.01600000075995922, 0.9520000219345093, 0.11600000411272049, 192.0, 0.0, 0.0, 0.0, 0.0, 0.0, 0.0, 0.0, 0.0, 0.0, 1.6170057024261458E9, 2021-03-29 11:15:02.426
178.0, 187500.0, -33573.234375, 187500.0, -52071.6484375, 18649.84765625, 187500.0, -87322.6953125, 187500.0, 187500.0, 187500.0, 187500.0, -38837.49609375, 187500.0, 187500.0, -187500.015625, -187500.015625, -0.01600000075995922, 0.9520000219345093, 0.11600000411272049, 192.0, 0.0, 0.0, 0.0, 0.0, 0.0, 0.0, 0.0, 0.0, 0.0, 1.61700570242615E9, 2021-03-29 11:15:02.426
180.0, 187500.0, -33467.98046875, 187500.0, -52511.62109375, 18077.1953125, 187500.0, -87364.7890625, 187500.0, 187500.0, 187500.0, 187500.0, -40497.0, 187500.0, 187500.0, -187500.015625, -187500.015625, -0.02200000174343586, 0.9540000557899475, 0.11800000816583633, 192.0, 127.5, 40.0, 14.5, 104.0, 1.5, 88.0, 0.0, 0.0, 0.0, 1.6170057024261546E9, 2021-03-29 11:15:02.426
0.0, 101839.1953125, 42528.5078125, 62547.890625, 6405.74169921875, 79392.5703125, 61005.953125, 104157.2890625, 54232.73046875, 42461.5625, 93749.984375, -85594.859375, 93749.984375, -92243.765625, -63848.29296875, -91377.125, 93749.984375, -0.02800000086426735, 0.4440000355243683, 0.1680000126361847, 192.0, 127.5, 16.0, 6.5, 112.0, 2.5, 32.0, 0.0, 0.0, 0.0, 1.6170057025876343E9, 2021-03-29 11:15:02.587
2.0, 104572.6796875, 41523.70703125, 61462.6015625, 5324.20751953125, 78331.59375, 59941.54296875, 103082.7578125, 53229.06640625, 85221.03125, 187500.0, -171266.296875, 187500.0, -184406.28125, -127944.0859375, -182742.265625, 187500.0, -0.02800000086426735, 0.4440000355243683, 0.1680000126361847, 192.0, 0.0, 0.0, 0.0, 0.0, 0.0, 0.0, 0.0, 0.0, 0.0, 1.6170057025876396E9, 2021-03-29 11:15:02.587
4.0, 102428.8984375, 41820.37890625, 61846.58203125, 5700.9912109375, 78687.2109375, 60299.50390625, 103474.0703125, 53508.15234375, 89450.1796875, 187500.0, -168578.96875, 187500.0, -183404.140625, -126878.1328125, -182413.515625, 187500.0, -0.02800000086426735, 0.4440000355243683, 0.1680000126361847, 192.0, 0.0, 0.0, 0.0, 0.0, 0.0, 0.0, 0.0, 0.0, 0.0, 1.6170057025876443E9, 2021-03-29 11:15:02.587
6.0, 102923.71875, 42158.51953125, 62127.7890625, 5985.4619140625, 78987.7734375, 60588.22265625, 103732.765625, 53856.79296875, 85401.6328125, 187500.0, -171786.8125, 187500.0, -184296.96875, -128680.109375, -182598.171875, 187500.0, -0.03200000151991844, 0.5560000389814377, 0.21400001645088196, 192.0, 127.0, 112.0, 10.0, 112.0, 4.0, 16.0, 0.0, 0.0, 0.0, 1.6170057025876489E9, 2021-03-29 11:15:02.587
8.0, 104371.4453125, 41066.14453125, 61055.0625, 4900.5078125, 77911.8046875, 59507.5625, 102659.6171875, 52753.6484375, 88445.0234375, 187500.0, -170010.875, 187500.0, -183557.21875, -128049.984375, -182363.859375, 187500.0, -0.03200000151991844, 0.5560000389814377, 0.21400001645088196, 192.0, 0.0, 0.0, 0.0, 0.0, 0.0, 0.0, 0.0, 0.0, 0.0, 1.6170057025876532E9, 2021-03-29 11:15:02.587
10.0, 101688.2109375, 42314.04296875, 62339.4140625, 6186.7392578125, 79184.203125, 60792.05078125, 103948.015625, 54064.98046875, 88115.8515625, 187500.0, -170554.90625, 187500.0, -183556.40625, -128490.4765625, -182577.453125, 187500.0, -0.03200000151991844, 0.5560000389814377, 0.21400001645088196, 192.0, 0.0, 0.0, 0.0, 0.0, 0.0, 0.0, 0.0, 0.0, 0.0, 1.6170057025876577E9, 2021-03-29 11:15:02.587
12.0, 104407.765625, 41339.73046875, 61285.80078125, 5139.0234375, 78154.7734375, 59749.7421875, 102856.9609375, 53059.93359375, 86494.8125, 187500.0, -172049.390625, 187500.0, -183897.5, -129509.9140625, -182731.984375, 187500.0, -0.03200000151991844, 0.5560000389814377, 0.21400001645088196, 192.0, 0.0, 0.0, 0.0, 0.0, 0.0, 0.0, 0.0, 0.0, 0.0, 1.617005702587662E9, 2021-03-29 11:15:02.587
14.0, 102327.9609375, 41634.97265625, 61675.1875, 5515.8740234375, 78515.640625, 60111.484375, 103249.0546875, 53354.37109375, 90669.46875, 187500.0, -169470.25, 187500.0, -182884.765625, -128392.1484375, -182391.140625, 187500.0, -0.03200000151991844, 0.5560000389814377, 0.21400001645088196, 192.0, 0.0, 0.0, 0.0, 0.0, 0.0, 0.0, 0.0, 0.0, 0.0, 1.6170057025876665E9, 2021-03-29 11:15:02.587
16.0, 102787.53125, 41989.89453125, 61964.46484375, 5809.330078125, 78831.4921875, 60428.23046875, 103550.53125, 53728.18359375, 86642.9375, 187500.0, -172610.21875, 187500.0, -183773.5625, -130247.9453125, -182578.09375, 187500.0, -0.03100000135600567, 0.6700000390410423, 0.2630000114440918, 192.0, 127.5, 8.0, 12.0, 64.0, 4.5, 96.0, 0.0, 0.0, 0.0, 1.6170057025876744E9, 2021-03-29 11:15:02.587
18.0, 104340.015625, 40885.71875, 60861.18359375, 4701.15283203125, 77729.9296875, 59319.6484375, 102434.0625, 52562.984375, 89591.2890625, 187500.0, -170910.125, 187500.0, -183059.390625, -129621.5625, -182338.90625, 187500.0, -0.03100000135600567, 0.6700000390410423, 0.2630000114440918, 192.0, 0.0, 0.0, 0.0, 0.0, 0.0, 0.0, 0.0, 0.0, 0.0, 1.6170057029552414E9, 2021-03-29 11:15:02.955
20.0, 101576.625, 42146.13671875, 62155.328125, 5997.86669921875, 79018.9765625, 60618.17578125, 103779.5234375, 53886.09765625, 89382.25, 187500.0, -171352.5625, 187500.0, -183035.546875, -130037.796875, -182540.59375, 187500.0, -0.03100000135600567, 0.6700000390410423, 0.2630000114440918, 192.0, 0.0, 0.0, 0.0, 0.0, 0.0, 0.0, 0.0, 0.0, 0.0, 1.6170057029553957E9, 2021-03-29 11:15:02.955
22.0, 104303.6953125, 41174.39453125, 61098.671875, 4946.19482421875, 77985.2109375, 59570.8828125, 102681.046875, 52894.53125, 87625.3359375, 187500.0, -172890.421875, 187500.0, -183400.90625, -131133.921875, -182717.71875, 187500.0, -0.03100000135600567, 0.6700000390410423, 0.2630000114440918, 192.0, 0.0, 0.0, 0.0, 0.0, 0.0, 0.0, 0.0, 0.0, 0.0, 1.6170057029554017E9, 2021-03-29 11:15:02.955
24.0, 102249.1484375, 41441.02734375, 61457.19140625, 5296.87158203125, 78313.5546875, 59904.73046875, 103040.1953125, 53178.73046875, 91772.953125, 187500.0, -170293.15625, 187500.0, -182314.65625, -129934.4609375, -182344.8125, 187500.0, -0.03100000135600567, 0.6700000390410423, 0.2630000114440918, 192.0, 0.0, 0.0, 0.0, 0.0, 0.0, 0.0, 0.0, 0.0, 0.0, 1.617005702955408E9, 2021-03-29 11:15:02.955
26.0, 102604.25, 41799.078125, 61763.3203125, 5593.14404296875, 78643.9140625, 60216.0, 103341.71875, 53529.72265625, 87706.2109375, 187500.0, -173356.171875, 187500.0, -183491.34375, -131796.046875, -182525.5625, 187500.0, -0.030500001274049282, 0.754000049084425, 0.2955000102519989, 192.0, 127.5, 8.0, 13.0, 24.0, 5.0, 32.0, 0.0, 0.0, 0.0, 1.617005702955414E9, 2021-03-29 11:15:02.955
28.0, 104222.46875, 40669.95703125, 60643.34375, 4460.24560546875, 77508.6015625, 59088.0625, 102211.375, 52374.00390625, 90541.703125, 187500.0, -171761.8125, 187500.0, -182733.265625, -131156.609375, -182292.703125, 187500.0, -0.030500001274049282, 0.754000049084425, 0.2955000102519989, 192.0, 0.0, 0.0, 0.0, 0.0, 0.0, 0.0, 0.0, 0.0, 0.0, 1.6170057029554195E9, 2021-03-29 11:15:02.955
30.0, 101427.6328125, 42015.625, 62023.49609375, 5841.6728515625, 78873.0859375, 60468.73046875, 103570.1796875, 53754.55859375, 90441.6171875, 187500.0, -172106.765625, 187500.0, -182815.171875, -131474.09375, -182495.765625, 187500.0, -0.030500001274049282, 0.754000049084425, 0.2955000102519989, 192.0, 0.0, 0.0, 0.0, 0.0, 0.0, 0.0, 0.0, 0.0, 0.0, 1.6170057029554265E9, 2021-03-29 11:15:02.955
32.0, 104190.2421875, 41022.734375, 60953.31640625, 4769.54931640625, 77823.453125, 59405.16796875, 102485.1171875, 52773.2265625, 88572.0703125, 187500.0, -173720.71875, 187500.0, -183351.265625, -132593.46875, -182670.46875, 187500.0, -0.030500001274049282, 0.754000049084425, 0.2955000102519989, 192.0, 0.0, 0.0, 0.0, 0.0, 0.0, 0.0, 0.0, 0.0, 0.0, 1.6170057029554324E9, 2021-03-29 11:15:02.955
34.0, 102185.0859375, 41246.05078125, 61273.34765625, 5073.041015625, 78112.59375, 59704.97265625, 102810.890625, 52977.87890625, 92828.265625, 187500.0, -171158.546875, 187500.0, -182243.5625, -131317.328125, -182283.921875, 187500.0, -0.030500001274049282, 0.754000049084425, 0.2955000102519989, 192.0, 0.0, 0.0, 0.0, 0.0, 0.0, 0.0, 0.0, 0.0, 0.0, 1.6170057029554381E9, 2021-03-29 11:15:02.955
36.0, 102491.6875, 41693.04296875, 61662.24609375, 5466.521484375, 78519.8671875, 60111.6171875, 103169.5703125, 53448.80859375, 88795.453125, 187500.0, -174200.6875, 187500.0, -183445.34375, -133208.328125, -182489.921875, 187500.0, -0.03425000188872218, 0.8120000567287207, 0.3217500150203705, 192.0, 127.0, 104.0, 13.5, 24.0, 5.0, 112.0, 0.0, 0.0, 0.0, 1.617005702955444E9, 2021-03-29 11:15:02.955
38.0, 104231.8125, 40533.74609375, 60505.92578125, 4303.0458984375, 77354.3984375, 58963.2734375, 102012.28125, 52294.83203125, 91571.296875, 187500.0, -172678.640625, 187500.0, -182719.140625, -132560.640625, -182249.4375, 187500.0, -0.03425000188872218, 0.8120000567287207, 0.3217500150203705, 192.0, 0.0, 0.0, 0.0, 0.0, 0.0, 0.0, 0.0, 0.0, 0.0, 1.61700570295545E9, 2021-03-29 11:15:02.955
40.0, 101338.6953125, 41875.0078125, 61891.0390625, 5683.84716796875, 78731.6953125, 60345.6640625, 103447.3984375, 53625.296875, 91633.25, 187500.0, -172932.828125, 187500.0, -182780.046875, -132824.125, -182443.5, 187500.0, -0.03425000188872218, 0.8120000567287207, 0.3217500150203705, 192.0, 0.0, 0.0, 0.0, 0.0, 0.0, 0.0, 0.0, 0.0, 0.0, 1.6170057029554553E9, 2021-03-29 11:15:02.955
42.0, 104133.9375, 40950.29296875, 60885.9921875, 4685.037109375, 77752.2578125, 59347.38671875, 102401.1796875, 52696.9609375, 89662.546875, 187500.0, -174602.453125, 187500.0, -183354.015625, -133997.546875, -182651.296875, 187500.0, -0.03425000188872218, 0.8120000567287207, 0.3217500150203705, 192.0, 0.0, 0.0, 0.0, 0.0, 0.0, 0.0, 0.0, 0.0, 0.0, 1.6170057029554613E9, 2021-03-29 11:15:02.955
44.0, 102187.2734375, 41139.90234375, 61169.75, 4956.63330078125, 78001.0625, 59600.07421875, 102692.671875, 52876.15625, 93986.109375, 187500.0, -172003.9375, 187500.0, -182213.453125, -132665.171875, -182265.96875, 187500.0, -0.03425000188872218, 0.8120000567287207, 0.3217500150203705, 192.0, 0.0, 0.0, 0.0, 0.0, 0.0, 0.0, 0.0, 0.0, 0.0, 1.6170057029554675E9, 2021-03-29 11:15:02.955
46.0, 102452.1875, 41607.50390625, 61579.76953125, 5373.11328125, 78436.3359375, 60036.671875, 103089.7265625, 53410.80859375, 89896.34375, 187500.0, -175013.28125, 187500.0, -183402.265625, -134583.46875, -182473.484375, 187500.0, -0.03912500268779695, 0.8470000429078937, 0.3358750194311142, 192.0, 127.0, 80.0, 13.5, 72.0, 5.0, 120.0, 0.0, 0.0, 0.0, 1.6170057029554732E9, 2021-03-29 11:15:02.955
48.0, 104264.4453125, 40387.65625, 60353.328125, 4151.12109375, 77212.375, 58816.4453125, 101867.828125, 52157.28125, 92594.1796875, 187500.0, -173500.25, 187500.0, -182670.234375, -133944.90625, -182233.125, 187500.0, -0.03912500268779695, 0.8470000429078937, 0.3358750194311142, 192.0, 0.0, 0.0, 0.0, 0.0, 0.0, 0.0, 0.0, 0.0, 0.0, 1.617005702955479E9, 2021-03-29 11:15:02.955
50.0, 101270.453125, 41719.05859375, 61720.00390625, 5520.0087890625, 78565.484375, 60175.36328125, 103209.15625, 53503.859375, 92754.4375, 187500.0, -173629.078125, 187500.0, -182695.390625, -134159.171875, -182385.578125, 187500.0, -0.03912500268779695, 0.8470000429078937, 0.3358750194311142, 192.0, 0.0, 0.0, 0.0, 0.0, 0.0, 0.0, 0.0, 0.0, 0.0, 1.6170057029554887E9, 2021-03-29 11:15:02.955
52.0, 104072.0234375, 40771.859375, 60688.24609375, 4494.84619140625, 77561.421875, 59166.83203125, 102185.2890625, 52552.94921875, 90649.7109375, 187500.0, -175336.421875, 187500.0, -183304.5, -135374.125, -182586.671875, 187500.0, -0.03912500268779695, 0.8470000429078937, 0.3358750194311142, 192.0, 0.0, 0.0, 0.0, 0.0, 0.0, 0.0, 0.0, 0.0, 0.0, 1.6170057029554944E9, 2021-03-29 11:15:02.955
54.0, 102138.8828125, 40937.28515625, 60954.1875, 4745.09619140625, 77799.7578125, 59404.02734375, 102496.265625, 52721.88671875, 95074.6875, 187500.0, -172663.9375, 187500.0, -182149.328125, -133989.71875, -182186.109375, 187500.0, -0.03912500268779695, 0.8470000429078937, 0.3358750194311142, 192.0, 0.0, 0.0, 0.0, 0.0, 0.0, 0.0, 0.0, 0.0, 0.0, 1.6170057029555004E9, 2021-03-29 11:15:02.955
56.0, 102312.3125, 41461.76953125, 61422.8359375, 5217.791015625, 78289.3046875, 59889.1953125, 102909.7109375, 53247.12890625, 90960.328125, 187500.0, -175663.84375, 187500.0, -183359.953125, -135909.46875, -182389.734375, 187500.0, -0.04056250292342156, 0.8685000441037118, 0.3449375107884407, 192.0, 127.0, 88.0, 13.5, 104.0, 5.5, 8.0, 0.0, 0.0, 0.0, 1.6170057029555056E9, 2021-03-29 11:15:02.955
58.0, 104237.9140625, 40239.75390625, 60193.3359375, 3988.780517578125, 77055.0234375, 58656.18359375, 101682.1953125, 52045.72265625, 93623.65625, 187500.0, -174205.796875, 187500.0, -182647.71875, -135274.625, -182155.09375, 187500.0, -0.04056250292342156, 0.8685000441037118, 0.3449375107884407, 192.0, 0.0, 0.0, 0.0, 0.0, 0.0, 0.0, 0.0, 0.0, 0.0, 1.6170057029555116E9, 2021-03-29 11:15:02.955
60.0, 101152.28125, 41571.5625, 61573.48828125, 5363.21142578125, 78421.46875, 60028.1328125, 103076.203125, 53377.23828125, 93935.28125, 187500.0, -174266.28125, 187500.0, -182644.484375, -135444.921875, -182346.6875, 187500.0, -0.04056250292342156, 0.8685000441037118, 0.3449375107884407, 192.0, 0.0, 0.0, 0.0, 0.0, 0.0, 0.0, 0.0, 0.0, 0.0, 1.6170057029555173E9, 2021-03-29 11:15:02.955
62.0, 103975.5703125, 40628.921875, 60555.65625, 4345.55908203125, 77428.9453125, 59017.0078125, 102020.0859375, 52436.87890625, 91724.5625, 187500.0, -176085.1875, 187500.0, -183282.3125, -136708.15625, -182558.828125, 187500.0, -0.04056250292342156, 0.8685000441037118, 0.3449375107884407, 192.0, 0.0, 0.0, 0.0, 0.0, 0.0, 0.0, 0.0, 0.0, 0.0, 1.6170057029555233E9, 2021-03-29 11:15:02.955
64.0, 102079.0078125, 40766.921875, 60783.9140625, 4564.82958984375, 77624.140625, 59229.015625, 102247.78125, 52576.8671875, 96283.2421875, 187500.0, -173376.734375, 187500.0, -182106.203125, -135282.359375, -182143.796875, 187500.0, -0.04056250292342156, 0.8685000441037118, 0.3449375107884407, 192.0, 0.0, 0.0, 0.0, 0.0, 0.0, 0.0, 0.0, 0.0, 0.0, 1.6170057029555292E9, 2021-03-29 11:15:02.955
66.0, 102126.90625, 41271.66796875, 61230.43359375, 5017.36279296875, 78093.171875, 59684.33984375, 102694.953125, 53081.1015625, 92173.0, 187500.0, -176398.640625, 187500.0, -183327.03125, -137213.21875, -182340.625, 187500.0, -0.04128125304123387, 0.8802500318270177, 0.3504687584936619, 192.0, 127.0, 88.0, 13.5, 112.0, 5.5, 16.0, 0.0, 0.0, 0.0, 1.6170057029555347E9, 2021-03-29 11:15:02.955
68.0, 104146.34375, 40032.2421875, 59981.41796875, 3768.03466796875, 76841.984375, 58435.68359375, 101431.046875, 51836.12890625, 94827.828125, 187500.0, -174979.546875, 187500.0, -182639.71875, -136587.84375, -182107.484375, 187500.0, -0.04128125304123387, 0.8802500318270177, 0.3504687584936619, 192.0, 0.0, 0.0, 0.0, 0.0, 0.0, 0.0, 0.0, 0.0, 0.0, 1.6170057029555404E9, 2021-03-29 11:15:02.955
70.0, 100992.3515625, 41359.2421875, 61350.26171875, 5139.76123046875, 78195.7421875, 59794.578125, 102803.9140625, 53168.203125, 95311.5234375, 187500.0, -174916.71875, 187500.0, -182589.890625, -136688.46875, -182297.609375, 187500.0, -0.04128125304123387, 0.8802500318270177, 0.3504687584936619, 192.0, 0.0, 0.0, 0.0, 0.0, 0.0, 0.0, 0.0, 0.0, 0.0, 1.6170057029555464E9, 2021-03-29 11:15:02.955
72.0, 103863.5234375, 40466.89453125, 60369.9375, 4161.08984375, 77242.375, 58837.8125, 101781.390625, 52274.11328125, 92991.8125, 187500.0, -176771.171875, 187500.0, -183258.34375, -137997.453125, -182535.828125, 187500.0, -0.04128125304123387, 0.8802500318270177, 0.3504687584936619, 192.0, 0.0, 0.0, 0.0, 0.0, 0.0, 0.0, 0.0, 0.0, 0.0, 1.617005702955552E9, 2021-03-29 11:15:02.955
74.0, 102018.6328125, 40535.0, 60533.328125, 4306.57763671875, 77377.0234375, 58981.01953125, 102010.34375, 52348.03125, 97671.7578125, 187500.0, -173950.703125, 187500.0, -182044.875, -136553.953125, -182122.59375, 187500.0, -0.04128125304123387, 0.8802500318270177, 0.3504687584936619, 192.0, 0.0, 0.0, 0.0, 0.0, 0.0, 0.0, 0.0, 0.0, 0.0, 1.617005702955558E9, 2021-03-29 11:15:02.955
76.0, 101984.3203125, 41044.28515625, 60993.39453125, 4764.5869140625, 77853.625, 59447.32421875, 102440.0078125, 52892.96484375, 93532.1640625, 187500.0, -176939.546875, 187500.0, -183248.09375, -138497.140625, -182316.796875, 187500.0, -0.036640627280576155, 0.8851250385632738, 0.35323438234627247, 192.0, 127.5, 0.0, 13.5, 104.0, 5.5, 16.0, 0.0, 0.0, 0.0, 1.6170057029555645E9, 2021-03-29 11:15:02.955
78.0, 104083.890625, 39808.8125, 59749.25, 3519.32666015625, 76602.2890625, 58199.625, 101169.0859375, 51607.16015625, 96108.1875, 187500.0, -175523.296875, 187500.0, -182551.515625, -137918.96875, -182091.09375, 187500.0, -0.036640627280576155, 0.8851250385632738, 0.35323438234627247, 192.0, 0.0, 0.0, 0.0, 0.0, 0.0, 0.0, 0.0, 0.0, 0.0, 1.6170057029555705E9, 2021-03-29 11:15:02.955
80.0, 100878.2890625, 41208.5234375, 61203.1875, 4980.41552734375, 78044.375, 59646.58984375, 102645.9375, 53047.37109375, 96743.46875, 187500.0, -175337.265625, 187500.0, -182453.28125, -137977.609375, -182234.84375, 187500.0, -0.036640627280576155, 0.8851250385632738, 0.35323438234627247, 192.0, 0.0, 0.0, 0.0, 0.0, 0.0, 0.0, 0.0, 0.0, 0.0, 1.617005702955576E9, 2021-03-29 11:15:02.955
82.0, 103723.0390625, 40224.7578125, 60136.18359375, 3914.371337890625, 77003.703125, 58598.0703125, 101560.53125, 52057.65625, 94302.3828125, 187500.0, -177271.90625, 187500.0, -183147.9375, -139339.453125, -182467.078125, 187500.0, -0.036640627280576155, 0.8851250385632738, 0.35323438234627247, 192.0, 0.0, 0.0, 0.0, 0.0, 0.0, 0.0, 0.0, 0.0, 0.0, 1.617005702955582E9, 2021-03-29 11:15:02.955
84.0, 101909.421875, 40256.16015625, 60271.34375, 4028.454833984375, 77102.4765625, 58707.45703125, 101679.3359375, 52085.1953125, 99135.078125, 187500.0, -174356.546875, 187500.0, -181906.6875, -137885.453125, -182055.46875, 187500.0, -0.036640627280576155, 0.8851250385632738, 0.35323438234627247, 192.0, 0.0, 0.0, 0.0, 0.0, 0.0, 0.0, 0.0, 0.0, 0.0, 1.6170057029555893E9, 2021-03-29 11:15:02.955
86.0, 101829.875, 40891.28515625, 60856.1328125, 4615.076171875, 77708.453125, 59307.06640625, 102251.25, 52757.7578125, 95079.8046875, 187500.0, -177330.125, 187500.0, -183140.78125, -139827.125, -182242.453125, 187500.0, -0.03732031489198562, 0.8895625459845178, 0.35361719224601984, 192.0, 127.0, 104.0, 13.5, 120.0, 5.5, 8.0, 0.0, 0.0, 0.0, 1.6170057029555953E9, 2021-03-29 11:15:02.955
88.0, 103991.6640625, 39560.23828125, 59511.02734375, 3270.3505859375, 76369.0234375, 57964.91015625, 100921.4765625, 51414.30859375, 97654.1875, 187500.0, -175952.25, 187500.0, -182476.140625, -139278.5, -182015.84375, 187500.0, -0.03732031489198562, 0.8895625459845178, 0.35361719224601984, 192.0, 0.0, 0.0, 0.0, 0.0, 0.0, 0.0, 0.0, 0.0, 0.0, 1.6170057029556005E9, 2021-03-29 11:15:02.955
90.0, 100699.5, 40943.74609375, 60947.796875, 4706.36083984375, 77796.6484375, 59407.359375, 102349.21875, 52824.12109375, 98442.3515625, 187500.0, -175679.46875, 187500.0, -182366.0625, -139276.84375, -182182.46875, 187500.0, -0.03732031489198562, 0.8895625459845178, 0.35361719224601984, 192.0, 0.0, 0.0, 0.0, 0.0, 0.0, 0.0, 0.0, 0.0, 0.0, 1.6170057029556067E9, 2021-03-29 11:15:02.955
92.0, 103514.2109375, 40038.74609375, 59960.18359375, 3715.5302734375, 76846.8828125, 58440.01953125, 101405.8359375, 51954.03515625, 95841.796875, 187500.0, -177736.484375, 187500.0, -183116.21875, -140668.90625, -182431.53125, 187500.0, -0.03732031489198562, 0.8895625459845178, 0.35361719224601984, 192.0, 0.0, 0.0, 0.0, 0.0, 0.0, 0.0, 0.0, 0.0, 0.0, 1.6170057029556124E9, 2021-03-29 11:15:02.955
94.0, 101770.90625, 40048.19921875, 60061.796875, 3804.892578125, 76904.1484375, 58518.18359375, 101497.34375, 51939.68359375, 100679.2734375, 187500.0, -174798.21875, 187500.0, -181866.546875, -139191.640625, -182015.6875, 187500.0, -0.03732031489198562, 0.8895625459845178, 0.35361719224601984, 192.0, 0.0, 0.0, 0.0, 0.0, 0.0, 0.0, 0.0, 0.0, 0.0, 1.6170057029556184E9, 2021-03-29 11:15:02.955
96.0, 101606.46875, 40727.9375, 60692.0234375, 4439.01171875, 77557.4453125, 59156.9296875, 102112.734375, 52629.16796875, 96497.5078125, 187500.0, -177813.90625, 187500.0, -183095.53125, -141094.6875, -182193.3125, 187500.0, -0.039660159025515895, 0.8917812996951398, 0.35580860124900937, 192.0, 127.0, 88.0, 13.5, 120.0, 5.5, 24.0, 0.0, 0.0, 0.0, 1.617005702955624E9, 2021-03-29 11:15:02.955
98.0, 103855.8984375, 39337.97265625, 59293.58984375, 3033.265625, 76164.6875, 57755.96875, 100665.90625, 51219.9609375, 98929.9765625, 187500.0, -176465.109375, 187500.0, -182433.96875, -140559.921875, -181967.53125, 187500.0, -0.039660159025515895, 0.8917812996951398, 0.35580860124900937, 192.0, 0.0, 0.0, 0.0, 0.0, 0.0, 0.0, 0.0, 0.0, 0.0, 1.6170057029556296E9, 2021-03-29 11:15:02.955
100.0, 100428.28125, 40659.09765625, 60679.77734375, 4419.65478515625, 77535.453125, 59145.41796875, 102108.375, 52599.2421875, 99854.8046875, 187500.0, -176035.625, 187500.0, -182271.890625, -140490.65625, -182130.796875, 187500.0, -0.039660159025515895, 0.8917812996951398, 0.35580860124900937, 192.0, 0.0, 0.0, 0.0, 0.0, 0.0, 0.0, 0.0, 0.0, 0.0, 1.6170057029556355E9, 2021-03-29 11:15:02.955
102.0, 103242.28125, 39794.375, 59733.1796875, 3478.646484375, 76620.3046875, 58224.16796875, 101127.359375, 51761.40625, 97123.671875, 187500.0, -178132.828125, 187500.0, -183045.40625, -141917.640625, -182391.875, 187500.0, -0.039660159025515895, 0.8917812996951398, 0.35580860124900937, 192.0, 0.0, 0.0, 0.0, 0.0, 0.0, 0.0, 0.0, 0.0, 0.0, 1.6170057029556415E9, 2021-03-29 11:15:02.955
104.0, 101574.1875, 39760.0625, 59803.8125, 3531.106201171875, 76653.7421875, 58253.6953125, 101221.7265625, 51704.8359375, 102087.5859375, 187500.0, -175097.34375, 187500.0, -181767.84375, -140416.46875, -181960.453125, 187500.0, -0.039660159025515895, 0.8917812996951398, 0.35580860124900937, 192.0, 0.0, 0.0, 0.0, 0.0, 0.0, 0.0, 0.0, 0.0, 0.0, 1.6170057029556475E9, 2021-03-29 11:15:02.955
106.0, 101278.5703125, 40386.44921875, 60374.5625, 4107.49072265625, 77243.8671875, 58836.13671875, 101767.8203125, 52333.234375, 97970.796875, 187500.0, -178112.03125, 187500.0, -183022.984375, -142326.515625, -182141.921875, 187500.0, -0.04800000041723251, 0.9000000357627869, 0.3540000021457672, 192.0, 127.0, 64.0, 14.0, 16.0, 5.5, 8.0, 0.0, 0.0, 0.0, 1.6170057029556532E9, 2021-03-29 11:15:02.955
108.0, 103558.7578125, 38969.03515625, 58935.82421875, 2665.110107421875, 75817.8984375, 57415.68359375, 100347.015625, 50935.8671875, 100375.1953125, 187500.0, -176832.21875, 187500.0, -182412.46875, -141860.078125, -181934.90625, 187500.0, -0.04800000041723251, 0.9000000357627869, 0.3540000021457672, 192.0, 0.0, 0.0, 0.0, 0.0, 0.0, 0.0, 0.0, 0.0, 0.0, 1.6170057029712963E9, 2021-03-29 11:15:02.971
110.0, 100123.671875, 40350.3515625, 60385.06640625, 4105.724609375, 77234.6171875, 58846.57421875, 101764.4453125, 52341.66015625, 101472.3125, 187500.0, -176342.390625, 187500.0, -182231.828125, -141767.15625, -182077.734375, 187500.0, -0.04800000041723251, 0.9000000357627869, 0.3540000021457672, 192.0, 0.0, 0.0, 0.0, 0.0, 0.0, 0.0, 0.0, 0.0, 0.0, 1.6170057032058308E9, 2021-03-29 11:15:03.205
112.0, 102966.9921875, 39535.51953125, 59488.91796875, 3202.557861328125, 76361.2265625, 57961.625, 100841.9453125, 51503.6484375, 98646.8515625, 187500.0, -178587.140625, 187500.0, -183052.515625, -143233.453125, -182343.09375, 187500.0, -0.04800000041723251, 0.9000000357627869, 0.3540000021457672, 192.0, 0.0, 0.0, 0.0, 0.0, 0.0, 0.0, 0.0, 0.0, 0.0, 1.6170057032058375E9, 2021-03-29 11:15:03.205
114.0, 101397.703125, 39475.19140625, 59519.20703125, 3214.069091796875, 76358.671875, 57964.8671875, 100895.1640625, 51434.71484375, 103687.3046875, 187500.0, -175546.84375, 187500.0, -181777.484375, -141704.59375, -181931.734375, 187500.0, -0.04800000041723251, 0.9000000357627869, 0.3540000021457672, 192.0, 0.0, 0.0, 0.0, 0.0, 0.0, 0.0, 0.0, 0.0, 0.0, 1.6170057032058418E9, 2021-03-29 11:15:03.205
116.0, 101090.40625, 40284.0546875, 60270.0, 3971.92724609375, 77128.0, 58728.58203125, 101614.984375, 52257.19140625, 99586.7421875, 187500.0, -178557.0625, 187500.0, -183019.921875, -143589.390625, -182133.1875, 187500.0, -0.036000002175569534, 0.9020000696182251, 0.36400002241134644, 192.0, 127.0, 112.0, 14.0, 24.0, 5.5, 48.0, 0.0, 0.0, 0.0, 1.6170057032058463E9, 2021-03-29 11:15:03.205
118.0, 103531.6875, 38916.17578125, 58880.19140625, 2581.08984375, 75744.6953125, 57325.6953125, 100238.6484375, 50838.70703125, 101896.125, 187500.0, -177331.484375, 187500.0, -182428.265625, -143144.28125, -181930.703125, 187500.0, -0.036000002175569534, 0.9020000696182251, 0.36400002241134644, 192.0, 0.0, 0.0, 0.0, 0.0, 0.0, 0.0, 0.0, 0.0, 0.0, 1.6170057032058575E9, 2021-03-29 11:15:03.205
120.0, 100125.9765625, 40345.546875, 60376.77734375, 4077.807373046875, 77218.34375, 58831.15234375, 101730.2734375, 52346.48828125, 103118.8046875, 187500.0, -176741.625, 187500.0, -182203.09375, -142991.921875, -182041.46875, 187500.0, -0.036000002175569534, 0.9020000696182251, 0.36400002241134644, 192.0, 0.0, 0.0, 0.0, 0.0, 0.0, 0.0, 0.0, 0.0, 0.0, 1.617005703205862E9, 2021-03-29 11:15:03.205
122.0, 102977.703125, 39551.72265625, 59489.72265625, 3188.945556640625, 76356.75, 57959.234375, 100832.5859375, 51521.7734375, 100135.546875, 187500.0, -179027.828125, 187500.0, -183049.265625, -144518.6875, -182341.078125, 187500.0, -0.036000002175569534, 0.9020000696182251, 0.36400002241134644, 192.0, 0.0, 0.0, 0.0, 0.0, 0.0, 0.0, 0.0, 0.0, 0.0, 1.617005703205866E9, 2021-03-29 11:15:03.205
124.0, 101530.1796875, 39487.953125, 59502.8671875, 3190.465576171875, 76334.2421875, 57959.078125, 100838.375, 51460.10546875, 105138.0, 187500.0, -175897.15625, 187500.0, -181754.8125, -143026.28125, -181935.34375, 187500.0, -0.036000002175569534, 0.9020000696182251, 0.36400002241134644, 192.0, 0.0, 0.0, 0.0, 0.0, 0.0, 0.0, 0.0, 0.0, 0.0, 1.6170057032058706E9, 2021-03-29 11:15:03.205
126.0, 101123.828125, 40257.12109375, 60213.98828125, 3899.060546875, 77059.71875, 58679.02734375, 101545.515625, 52236.09375, 100941.9296875, 187500.0, -178865.0, 187500.0, -182974.4375, -144944.125, -182127.1875, 187500.0, -0.03200000151991844, 0.8960000276565552, 0.3500000238418579, 192.0, 127.5, 0.0, 14.0, 0.0, 5.0, 120.0, 0.0, 0.0, 0.0, 1.6170057032058747E9, 2021-03-29 11:15:03.205
128.0, 103598.3671875, 38842.79296875, 58776.66015625, 2447.828857421875, 75626.2734375, 57240.22265625, 100133.8203125, 50796.08203125, 103032.953125, 187500.0, -177673.5625, 187500.0, -182392.328125, -144585.15625, -181935.96875, 187500.0, -0.03200000151991844, 0.8960000276565552, 0.3500000238418579, 192.0, 0.0, 0.0, 0.0, 0.0, 0.0, 0.0, 0.0, 0.0, 0.0, 1.6170057032058792E9, 2021-03-29 11:15:03.205
130.0, 100114.640625, 40214.87890625, 60212.71484375, 3878.78759765625, 77042.328125, 58678.98046875, 101547.2578125, 52197.89453125, 104276.625, 187500.0, -176962.640625, 187500.0, -182112.484375, -144430.703125, -181994.609375, 187500.0, -0.03200000151991844, 0.8960000276565552, 0.3500000238418579, 192.0, 0.0, 0.0, 0.0, 0.0, 0.0, 0.0, 0.0, 0.0, 0.0, 1.6170057032058835E9, 2021-03-29 11:15:03.205
132.0, 102941.9609375, 39484.69140625, 59389.03125, 3058.903076171875, 76250.0, 57858.046875, 100683.0234375, 51441.48828125, 101063.875, 187500.0, -179323.25, 187500.0, -182970.6875, -146019.09375, -182286.25, 187500.0, -0.03200000151991844, 0.8960000276565552, 0.3500000238418579, 192.0, 0.0, 0.0, 0.0, 0.0, 0.0, 0.0, 0.0, 0.0, 0.0, 1.617005703205888E9, 2021-03-29 11:15:03.205
134.0, 101531.2109375, 39342.82421875, 59343.85546875, 2992.339599609375, 76165.9609375, 57782.20703125, 100666.421875, 51310.88671875, 106045.3203125, 187500.0, -176175.328125, 187500.0, -181650.71875, -144516.765625, -181872.78125, 187500.0, -0.03200000151991844, 0.8960000276565552, 0.3500000238418579, 192.0, 0.0, 0.0, 0.0, 0.0, 0.0, 0.0, 0.0, 0.0, 0.0, 1.6170057032058923E9, 2021-03-29 11:15:03.205
136.0, 101047.3359375, 40186.6484375, 60140.49609375, 3788.464111328125, 76984.609375, 58590.55859375, 101471.0859375, 52156.6328125, 101941.609375, 187500.0, -179132.3125, 187500.0, -182867.234375, -146391.5, -182058.953125, 187500.0, -0.03200000151991844, 0.8840000629425049, 0.33800002932548523, 192.0, 127.5, 0.0, 13.5, 80.0, 5.0, 72.0, 0.0, 0.0, 0.0, 1.6170057032058969E9, 2021-03-29 11:15:03.205
138.0, 103588.59375, 38765.27734375, 58704.88671875, 2349.32470703125, 75557.4296875, 57163.46875, 100033.0625, 50753.30078125, 104026.9140625, 187500.0, -178034.296875, 187500.0, -182318.453125, -146032.796875, -181874.234375, 187500.0, -0.03200000151991844, 0.8840000629425049, 0.33800002932548523, 192.0, 0.0, 0.0, 0.0, 0.0, 0.0, 0.0, 0.0, 0.0, 0.0, 1.617005703205901E9, 2021-03-29 11:15:03.205
140.0, 100087.1328125, 40113.9609375, 60123.93359375, 3768.50390625, 76953.7890625, 58572.6328125, 101417.546875, 52099.1875, 105532.015625, 187500.0, -177259.609375, 187500.0, -182033.703125, -145782.3125, -181940.421875, 187500.0, -0.03200000151991844, 0.8840000629425049, 0.33800002932548523, 192.0, 0.0, 0.0, 0.0, 0.0, 0.0, 0.0, 0.0, 0.0, 0.0, 1.6170057032059054E9, 2021-03-29 11:15:03.205
142.0, 102863.84375, 39397.05078125, 59317.05859375, 2964.265869140625, 76174.921875, 57779.5703125, 100601.15625, 51404.65234375, 102365.1328125, 187500.0, -179724.65625, 187500.0, -182958.796875, -147372.53125, -182223.34375, 187500.0, -0.03200000151991844, 0.8840000629425049, 0.33800002932548523, 192.0, 0.0, 0.0, 0.0, 0.0, 0.0, 0.0, 0.0, 0.0, 0.0, 1.61700570320591E9, 2021-03-29 11:15:03.205
144.0, 101543.59375, 39204.1328125, 59225.5703125, 2847.031005859375, 76048.609375, 57655.98828125, 100503.7421875, 51238.48828125, 107553.4140625, 187500.0, -176579.109375, 187500.0, -181674.65625, -145845.34375, -181794.21875, 187500.0, -0.03200000151991844, 0.8840000629425049, 0.33800002932548523, 192.0, 0.0, 0.0, 0.0, 0.0, 0.0, 0.0, 0.0, 0.0, 0.0, 1.6170057032059145E9, 2021-03-29 11:15:03.205
146.0, 100877.53125, 39978.91015625, 59960.23046875, 3585.957275390625, 76801.53125, 58401.12890625, 101245.265625, 52012.796875, 103613.046875, 187500.0, -179536.328125, 187500.0, -182899.015625, -147682.0625, -181976.828125, 187500.0, -0.02800000086426735, 0.8980000615119934, 0.34800001978874207, 192.0, 127.5, 16.0, 14.0, 8.0, 5.0, 112.0, 0.0, 0.0, 0.0, 1.6170057032059188E9, 2021-03-29 11:15:03.205
148.0, 103428.3984375, 38506.734375, 58458.1015625, 2084.009521484375, 75306.0859375, 56901.28125, 99727.0859375, 50507.1640625, 105678.5546875, 187500.0, -178524.671875, 187500.0, -182404.28125, -147329.078125, -181791.09375, 187500.0, -0.02800000086426735, 0.8980000615119934, 0.34800001978874207, 192.0, 0.0, 0.0, 0.0, 0.0, 0.0, 0.0, 0.0, 0.0, 0.0, 1.617005703205923E9, 2021-03-29 11:15:03.205
150.0, 99889.1796875, 39900.74609375, 59921.1796875, 3543.176025390625, 76734.34375, 58351.484375, 101126.328125, 51896.3671875, 107379.0078125, 187500.0, -177664.171875, 187500.0, -182064.265625, -146984.953125, -181883.0, 187500.0, -0.02800000086426735, 0.8980000615119934, 0.34800001978874207, 192.0, 0.0, 0.0, 0.0, 0.0, 0.0, 0.0, 0.0, 0.0, 0.0, 1.6170057032059271E9, 2021-03-29 11:15:03.205
152.0, 102623.4453125, 39144.875, 59069.1328125, 2686.210205078125, 75915.4140625, 57518.0546875, 100329.9375, 51120.11328125, 104107.40625, 187500.0, -180188.484375, 187500.0, -182999.015625, -148574.59375, -182207.8125, 187500.0, -0.02800000086426735, 0.8980000615119934, 0.34800001978874207, 192.0, 0.0, 0.0, 0.0, 0.0, 0.0, 0.0, 0.0, 0.0, 0.0, 1.617005703205933E9, 2021-03-29 11:15:03.205
154.0, 101384.515625, 38911.92578125, 58916.58203125, 2520.04736328125, 75730.2109375, 57355.421875, 100175.2421875, 50896.23828125, 109218.3515625, 187500.0, -176994.34375, 187500.0, -181692.234375, -147037.765625, -181782.46875, 187500.0, -0.02800000086426735, 0.8980000615119934, 0.34800001978874207, 192.0, 0.0, 0.0, 0.0, 0.0, 0.0, 0.0, 0.0, 0.0, 0.0, 1.6170057032059371E9, 2021-03-29 11:15:03.205
156.0, 100686.8046875, 39773.296875, 59734.72265625, 3340.199951171875, 76570.8125, 58182.23828125, 101010.953125, 51811.90234375, 105160.59375, 187500.0, -179888.578125, 187500.0, -182868.484375, -148858.859375, -181933.84375, 187500.0, -0.03400000184774399, 0.8980000615119934, 0.35200002789497375, 192.0, 127.0, 120.0, 14.0, 8.0, 5.5, 0.0, 0.0, 0.0, 0.0, 1.617005703205942E9, 2021-03-29 11:15:03.205
158.0, 103318.40625, 38331.69921875, 58259.10546875, 1856.46875, 75101.2109375, 56711.24609375, 99509.5625, 50326.78515625, 106941.8515625, 187500.0, -178900.25, 187500.0, -182372.375, -148576.71875, -181748.53125, 187500.0, -0.03400000184774399, 0.8980000615119934, 0.35200002789497375, 192.0, 0.0, 0.0, 0.0, 0.0, 0.0, 0.0, 0.0, 0.0, 0.0, 1.617005703205946E9, 2021-03-29 11:15:03.205
160.0, 99758.203125, 39668.2421875, 59666.86328125, 3262.48291015625, 76485.40625, 58110.35546875, 100905.1796875, 51695.76171875, 108610.5, 187500.0, -177897.53125, 187500.0, -181963.09375, -148207.4375, -181824.8125, 187500.0, -0.03400000184774399, 0.8980000615119934, 0.35200002789497375, 192.0, 0.0, 0.0, 0.0, 0.0, 0.0, 0.0, 0.0, 0.0, 0.0, 1.6170057032059505E9, 2021-03-29 11:15:03.205
162.0, 102456.7265625, 38981.84375, 58889.73828125, 2486.184326171875, 75741.9921875, 57349.6796875, 100126.109375, 51033.9921875, 105088.8203125, 187500.0, -180467.75, 187500.0, -182907.921875, -149836.65625, -182147.484375, 187500.0, -0.03400000184774399, 0.8980000615119934, 0.35200002789497375, 192.0, 0.0, 0.0, 0.0, 0.0, 0.0, 0.0, 0.0, 0.0, 0.0, 1.6170057032059548E9, 2021-03-29 11:15:03.205
164.0, 101318.9375, 38725.4921875, 58721.3828125, 2300.709716796875, 75545.6953125, 57167.3125, 99965.578125, 50766.3984375, 110150.4453125, 187500.0, -177231.140625, 187500.0, -181582.8125, -148294.234375, -181706.5625, 187500.0, -0.03400000184774399, 0.8980000615119934, 0.35200002789497375, 192.0, 0.0, 0.0, 0.0, 0.0, 0.0, 0.0, 0.0, 0.0, 0.0, 1.617005703205959E9, 2021-03-29 11:15:03.205
166.0, 100548.5390625, 39628.14453125, 59579.48828125, 3165.252685546875, 76427.921875, 58039.87890625, 100806.5390625, 51679.17578125, 106165.015625, 187500.0, -180080.984375, 187500.0, -182762.9375, -150086.109375, -181979.46875, 187500.0, -0.03400000184774399, 0.8980000615119934, 0.3440000116825104, 192.0, 127.0, 120.0, 14.0, 8.0, 5.0, 96.0, 0.0, 0.0, 0.0, 1.6170057032059634E9, 2021-03-29 11:15:03.205
168.0, 103237.1171875, 38162.18359375, 58082.8828125, 1657.8958740234375, 74944.4375, 56548.45703125, 99346.75, 50197.63671875, 107885.5859375, 187500.0, -179195.875, 187500.0, -182307.28125, -149840.140625, -181821.46875, 187500.0, -0.03400000184774399, 0.8980000615119934, 0.3440000116825104, 192.0, 0.0, 0.0, 0.0, 0.0, 0.0, 0.0, 0.0, 0.0, 0.0, 1.617005703205968E9, 2021-03-29 11:15:03.205
170.0, 99666.1796875, 39549.84765625, 59554.72265625, 3123.36572265625, 76386.75, 58005.48046875, 100817.1171875, 51604.3203125, 109770.375, 187500.0, -178156.890625, 187500.0, -181897.5, -149429.875, -181796.296875, 187500.0, -0.03400000184774399, 0.8980000615119934, 0.3440000116825104, 192.0, 0.0, 0.0, 0.0, 0.0, 0.0, 0.0, 0.0, 0.0, 0.0, 1.617005703205972E9, 2021-03-29 11:15:03.205
172.0, 102340.8359375, 38856.8515625, 58773.6875, 2340.987548828125, 75627.4609375, 57236.6015625, 99989.921875, 50919.93359375, 106252.1015625, 187500.0, -180857.140625, 187500.0, -182894.46875, -151102.890625, -182126.65625, 187500.0, -0.03400000184774399, 0.8980000615119934, 0.3440000116825104, 192.0, 0.0, 0.0, 0.0, 0.0, 0.0, 0.0, 0.0, 0.0, 0.0, 1.617005703288874E9, 2021-03-29 11:15:03.288
174.0, 101277.78125, 38542.40625, 58550.34765625, 2097.889892578125, 75370.8359375, 56990.0625, 99792.1796875, 50619.2109375, 111450.8203125, 187500.0, -177663.28125, 187500.0, -181590.015625, -149570.296875, -181694.75, 187500.0, -0.03400000184774399, 0.8980000615119934, 0.3440000116825104, 192.0, 0.0, 0.0, 0.0, 0.0, 0.0, 0.0, 0.0, 0.0, 0.0, 1.6170057032888794E9, 2021-03-29 11:15:03.288
176.0, 100436.375, 39510.44140625, 59469.5625, 3025.733154296875, 76311.8515625, 57929.953125, 100700.8203125, 51599.359375, 107611.2890625, 187500.0, -180540.359375, 187500.0, -182777.046875, -151328.09375, -181848.90625, 187500.0, -0.036000002175569534, 0.8940000534057617, 0.3540000021457672, 192.0, 127.0, 112.0, 13.5, 120.0, 5.5, 8.0, 0.0, 0.0, 0.0, 1.617005703288884E9, 2021-03-29 11:15:03.288
178.0, 103198.890625, 38016.78515625, 57934.71484375, 1486.5250244140625, 74786.9921875, 56402.90234375, 99147.7109375, 50097.6328125, 109316.8984375, 187500.0, -179746.90625, 187500.0, -182369.21875, -151103.734375, -181689.90625, 187500.0, -0.036000002175569534, 0.8940000534057617, 0.3540000021457672, 192.0, 0.0, 0.0, 0.0, 0.0, 0.0, 0.0, 0.0, 0.0, 0.0, 1.6170057032888882E9, 2021-03-29 11:15:03.288
180.0, 99609.609375, 39356.1015625, 59351.9921875, 2901.703369140625, 76172.890625, 57803.84375, 100558.0546875, 51445.98046875, 111390.765625, 187500.0, -178596.484375, 187500.0, -181905.4375, -150615.21875, -181727.09375, 187500.0, -0.036000002175569534, 0.8940000534057617, 0.3540000021457672, 192.0, 0.0, 0.0, 0.0, 0.0, 0.0, 0.0, 0.0, 0.0, 0.0, 1.6170057032888927E9, 2021-03-29 11:15:03.288
182.0, 102254.578125, 38759.7578125, 58659.9375, 2211.526123046875, 75515.4296875, 57130.54296875, 99840.078125, 50834.83984375, 107756.9765625, 187500.0, -181337.703125, 187500.0, -182905.390625, -152296.09375, -182063.5625, 187500.0, -0.036000002175569534, 0.8940000534057617, 0.3540000021457672, 192.0, 0.0, 0.0, 0.0, 0.0, 0.0, 0.0, 0.0, 0.0, 0.0, 1.617005703288897E9, 2021-03-29 11:15:03.288
184.0, 101288.3828125, 38370.34375, 58350.5234375, 1884.5426025390625, 75173.671875, 56806.0390625, 99550.8671875, 50425.6015625, 112876.2578125, 187500.0, -178091.65625, 187500.0, -181573.546875, -150765.90625, -181625.578125, 187500.0, -0.036000002175569534, 0.8940000534057617, 0.3540000021457672, 192.0, 0.0, 0.0, 0.0, 0.0, 0.0, 0.0, 0.0, 0.0, 0.0, 1.6170057032889032E9, 2021-03-29 11:15:03.288
186.0, 100364.6953125, 39434.5546875, 59378.4140625, 2913.84033203125, 76217.7265625, 57839.31640625, 100567.6015625, 51535.90234375, 109021.1640625, 187500.0, -180868.859375, 187500.0, -182692.890625, -152504.890625, -181895.3125, 187500.0, -0.030000001192092896, 0.89000004529953, 0.34800001978874207, 192.0, 127.5, 8.0, 13.5, 104.0, 5.0, 112.0, 0.0, 0.0, 0.0, 1.617005703288912E9, 2021-03-29 11:15:03.288
188.0, 103166.9765625, 37919.890625, 57832.3203125, 1363.3892822265625, 74679.1015625, 56287.30078125, 99013.5078125, 50000.671875, 110538.6953125, 187500.0, -180120.515625, 187500.0, -182274.890625, -152337.546875, -181773.03125, 187500.0, -0.030000001192092896, 0.89000004529953, 0.34800001978874207, 192.0, 0.0, 0.0, 0.0, 0.0, 0.0, 0.0, 0.0, 0.0, 0.0, 1.617005703288916E9, 2021-03-29 11:15:03.288
190.0, 99511.640625, 39178.515625, 59185.26953125, 2712.004150390625, 75999.640625, 57621.72265625, 100371.109375, 51269.421875, 112672.4375, 187500.0, -178918.75, 187500.0, -181773.203125, -151826.796875, -181698.734375, 187500.0, -0.030000001192092896, 0.89000004529953, 0.34800001978874207, 192.0, 0.0, 0.0, 0.0, 0.0, 0.0, 0.0, 0.0, 0.0, 0.0, 1.6170057033109095E9, 2021-03-29 11:15:03.310
192.0, 102039.3515625, 38476.9609375, 58396.79296875, 1916.393798828125, 75246.3203125, 56844.91015625, 99577.3984375, 50572.25, 108914.5234375, 187500.0, -181676.6875, 187500.0, -182842.03125, -153586.78125, -182075.578125, 187500.0, -0.030000001192092896, 0.89000004529953, 0.34800001978874207, 192.0, 0.0, 0.0, 0.0, 0.0, 0.0, 0.0, 0.0, 0.0, 0.0, 1.6170057033109221E9, 2021-03-29 11:15:03.310
194.0, 101109.8984375, 38083.79296875, 58094.21484375, 1599.6695556640625, 74910.2578125, 56523.3125, 99254.0546875, 50199.4921875, 114087.96875, 187500.0, -177835.453125, 187500.0, -181543.765625, -152089.265625, -181668.15625, 187500.0, -0.030000001192092896, 0.89000004529953, 0.34800001978874207, 192.0, 0.0, 0.0, 0.0, 0.0, 0.0, 0.0, 0.0, 0.0, 0.0, 1.6170057034602735E9, 2021-03-29 11:15:03.460
196.0, 100062.875, 39119.1484375, 59097.09375, 2604.7158203125, 75925.3671875, 57541.16796875, 100281.234375, 51257.80078125, 110384.5078125, 187500.0, -180590.515625, 187500.0, -182681.5625, -153793.40625, -181792.875, 187500.0, -0.03200000151991844, 0.8980000615119934, 0.3580000102519989, 192.0, 127.5, 0.0, 14.0, 8.0, 5.5, 24.0, 0.0, 0.0, 0.0, 1.6170057034602985E9, 2021-03-29 11:15:03.460
198.0, 102896.8125, 37619.81640625, 57547.359375, 1053.7506103515625, 74387.140625, 55994.4921875, 98696.625, 49737.81640625, 111883.578125, 187500.0, -179935.5, 187500.0, -182339.765625, -153661.625, -181628.453125, 187500.0, -0.03200000151991844, 0.8980000615119934, 0.3580000102519989, 192.0, 0.0, 0.0, 0.0, 0.0, 0.0, 0.0, 0.0, 0.0, 0.0, 1.6170057034603033E9, 2021-03-29 11:15:03.460
200.0, 99314.65625, 38963.6484375, 58970.16015625, 2473.06396484375, 75788.171875, 57398.6953125, 100156.4453125, 51103.6640625, 114265.15625, 187500.0, -178586.046875, 187500.0, -181814.65625, -153093.90625, -181656.359375, 187500.0, -0.03200000151991844, 0.8980000615119934, 0.3580000102519989, 192.0, 0.0, 0.0, 0.0, 0.0, 0.0, 0.0, 0.0, 0.0, 0.0, 1.6170057034603074E9, 2021-03-29 11:15:03.460
202.0, 101891.0234375, 38398.77734375, 58307.5625, 1807.943115234375, 75152.0390625, 56762.69921875, 99440.515625, 50489.68359375, 110499.265625, 187500.0, -181429.421875, 187500.0, -182872.53125, -154856.953125, -182026.59375, 187500.0, -0.03200000151991844, 0.8980000615119934, 0.3580000102519989, 192.0, 0.0, 0.0, 0.0, 0.0, 0.0, 0.0, 0.0, 0.0, 0.0, 1.617005703460312E9, 2021-03-29 11:15:03.460
204.0, 101050.78125, 37906.09765625, 57907.37890625, 1388.065673828125, 74716.40625, 56347.2265625, 99052.9609375, 50047.56640625, 115643.4765625, 187500.0, -178184.234375, 187500.0, -181551.921875, -153349.125, -181596.234375, 187500.0, -0.03200000151991844, 0.8980000615119934, 0.3580000102519989, 192.0, 0.0, 0.0, 0.0, 0.0, 0.0, 0.0, 0.0, 0.0, 0.0, 1.6170057034603162E9, 2021-03-29 11:15:03.460
206.0, 99906.234375, 38943.3984375, 58918.14453125, 2396.442138671875, 75736.7578125, 57354.28515625, 100029.0390625, 51063.31640625, 111890.390625, 187500.0, -181038.53125, 187500.0, -182630.0625, -155039.578125, -181738.875, 187500.0, -0.036000002175569534, 0.9100000262260437, 0.3580000102519989, 192.0, 127.0, 112.0, 14.0, 56.0, 5.5, 24.0, 0.0, 0.0, 0.0, 1.6170057034603207E9, 2021-03-29 11:15:03.460
208.0, 102768.1328125, 37419.0546875, 57359.11328125, 834.6588134765625, 74187.78125, 55817.48828125, 98494.6328125, 49594.00390625, 113097.1171875, 187500.0, -179923.6875, 187500.0, -182306.296875, -155003.578125, -181631.46875, 187500.0, -0.036000002175569534, 0.9100000262260437, 0.3580000102519989, 192.0, 0.0, 0.0, 0.0, 0.0, 0.0, 0.0, 0.0, 0.0, 0.0, 1.6170057034603248E9, 2021-03-29 11:15:03.460
210.0, 99182.7578125, 38742.703125, 58765.4609375, 2234.77197265625, 75573.796875, 57202.24609375, 99905.8359375, 50893.0, 115494.5859375, 187500.0, -178194.0, 187500.0, -181721.171875, -154418.046875, -181601.328125, 187500.0, -0.036000002175569534, 0.9100000262260437, 0.3580000102519989, 192.0, 0.0, 0.0, 0.0, 0.0, 0.0, 0.0, 0.0, 0.0, 0.0, 1.6170057034603293E9, 2021-03-29 11:15:03.460
212.0, 101668.5390625, 38169.06640625, 58091.62109375, 1561.71630859375, 74931.0234375, 56540.0078125, 99220.4609375, 50326.94140625, 111575.234375, 187500.0, -181075.625, 187500.0, -182800.96875, -156234.796875, -181960.03125, 187500.0, -0.036000002175569534, 0.9100000262260437, 0.3580000102519989, 192.0, 0.0, 0.0, 0.0, 0.0, 0.0, 0.0, 0.0, 0.0, 0.0, 1.6170057034603333E9, 2021-03-29 11:15:03.460
214.0, 100978.2265625, 37704.8203125, 57695.88671875, 1151.6065673828125, 74503.0546875, 56127.57421875, 98797.96875, 49849.9765625, 116737.34375, 187500.0, -177807.5, 187500.0, -181487.28125, -154748.515625, -181542.3125, 187500.0, -0.036000002175569534, 0.9100000262260437, 0.3580000102519989, 192.0, 0.0, 0.0, 0.0, 0.0, 0.0, 0.0, 0.0, 0.0, 0.0, 1.6170057034603379E9, 2021-03-29 11:15:03.460
216.0, 99775.4375, 38782.82421875, 58728.8046875, 2184.860595703125, 75555.7578125, 57178.3515625, 99868.171875, 50955.26953125, 113147.609375, 187500.0, -180417.125, 187500.0, -182569.0, -156393.109375, -181691.734375, 187500.0, -0.04400000348687172, 0.9020000696182251, 0.3620000183582306, 192.0, 127.0, 80.0, 14.0, 24.0, 5.5, 40.0, 0.0, 0.0, 0.0, 1.6170057034603424E9, 2021-03-29 11:15:03.460
218.0, 102703.890625, 37293.37109375, 57189.125, 634.0519409179688, 74031.59375, 55660.265625, 98311.3515625, 49464.20703125, 114364.84375, 187500.0, -179834.78125, 187500.0, -182276.84375, -156358.25, -181572.84375, 187500.0, -0.04400000348687172, 0.9020000696182251, 0.3620000183582306, 192.0, 0.0, 0.0, 0.0, 0.0, 0.0, 0.0, 0.0, 0.0, 0.0, 1.6170057034603467E9, 2021-03-29 11:15:03.460
220.0, 99070.859375, 38539.66015625, 58529.8515625, 1960.2926025390625, 75341.6015625, 56975.82421875, 99639.3984375, 50688.43359375, 116945.171875, 187500.0, -178245.765625, 187500.0, -181661.375, -155693.265625, -181561.3125, 187500.0, -0.04400000348687172, 0.9020000696182251, 0.3620000183582306, 192.0, 0.0, 0.0, 0.0, 0.0, 0.0, 0.0, 0.0, 0.0, 0.0, 1.6170057034603543E9, 2021-03-29 11:15:03.460
222.0, 101512.390625, 38032.18359375, 57934.890625, 1357.7567138671875, 74774.3125, 56395.8203125, 99038.5390625, 50203.53515625, 112940.8359375, 187500.0, -181194.875, 187500.0, -182764.234375, -157498.984375, -181949.5625, 187500.0, -0.04400000348687172, 0.9020000696182251, 0.3620000183582306, 192.0, 0.0, 0.0, 0.0, 0.0, 0.0, 0.0, 0.0, 0.0, 0.0, 1.6170057034603589E9, 2021-03-29 11:15:03.460
224.0, 100920.78125, 37559.40234375, 57538.640625, 939.5108642578125, 74347.53125, 55984.58984375, 98636.65625, 49759.609375, 118066.0859375, 187500.0, -177939.390625, 187500.0, -181442.46875, -155992.703125, -181535.75, 187500.0, -0.04400000348687172, 0.9020000696182251, 0.3620000183582306, 192.0, 0.0, 0.0, 0.0, 0.0, 0.0, 0.0, 0.0, 0.0, 0.0, 1.617005703460363E9, 2021-03-29 11:15:03.460
226.0, 99623.171875, 38643.5703125, 58585.59765625, 1984.90185546875, 75413.2421875, 57041.203125, 99699.953125, 50837.72265625, 114531.609375, 187500.0, -180500.09375, 187500.0, -182495.578125, -157596.015625, -181670.953125, 187500.0, -0.04400000348687172, 0.9000000357627869, 0.3540000021457672, 192.0, 127.0, 80.0, 14.0, 16.0, 5.5, 8.0, 0.0, 0.0, 0.0, 1.6170057034603674E9, 2021-03-29 11:15:03.460
228.0, 102576.3125, 37155.50390625, 57060.78125, 453.6956787109375, 73895.8515625, 55516.234375, 98149.296875, 49340.19921875, 115589.8515625, 187500.0, -180035.03125, 187500.0, -182221.71875, -157621.140625, -181551.609375, 187500.0, -0.04400000348687172, 0.9000000357627869, 0.3540000021457672, 192.0, 0.0, 0.0, 0.0, 0.0, 0.0, 0.0, 0.0, 0.0, 0.0, 1.6170057034603715E9, 2021-03-29 11:15:03.460
230.0, 99008.5, 38442.65234375, 58447.57421875, 1829.6690673828125, 75247.0078125, 56887.82421875, 99508.5078125, 50653.27734375, 118282.546875, 187500.0, -178439.9375, 187500.0, -181580.984375, -156940.15625, -181505.015625, 187500.0, -0.04400000348687172, 0.9000000357627869, 0.3540000021457672, 192.0, 0.0, 0.0, 0.0, 0.0, 0.0, 0.0, 0.0, 0.0, 0.0, 1.617005703460376E9, 2021-03-29 11:15:03.460
232.0, 101393.5, 37883.390625, 57788.35546875, 1174.6959228515625, 74634.7109375, 56247.44921875, 98865.140625, 50062.18359375, 114198.296875, 187500.0, -181542.890625, 187500.0, -182751.03125, -158810.296875, -181935.34375, 187500.0, -0.04400000348687172, 0.9000000357627869, 0.3540000021457672, 192.0, 0.0, 0.0, 0.0, 0.0, 0.0, 0.0, 0.0, 0.0, 0.0, 1.6170057034763808E9, 2021-03-29 11:15:03.476
234.0, 100803.1484375, 37276.33984375, 57254.640625, 632.3531494140625, 74069.453125, 55708.8359375, 98346.3984375, 49454.9765625, 119338.328125, 187500.0, -177704.28125, 187500.0, -181467.859375, -157338.890625, -181561.359375, 187500.0, -0.04400000348687172, 0.9000000357627869, 0.3540000021457672, 192.0, 0.0, 0.0, 0.0, 0.0, 0.0, 0.0, 0.0, 0.0, 0.0, 1.6170057036416247E9, 2021-03-29 11:15:03.641
236.0, 99395.2109375, 38409.7734375, 58364.78515625, 1741.62548828125, 75199.0, 56826.11328125, 99464.859375, 50660.83203125, 115906.7734375, 187500.0, -180215.5, 187500.0, -182504.625, -158903.828125, -181682.140625, 187500.0, -0.036000002175569534, 0.8940000534057617, 0.35600000619888306, 192.0, 127.0, 112.0, 13.5, 120.0, 5.5, 16.0, 0.0, 0.0, 0.0, 1.6170057036416323E9, 2021-03-29 11:15:03.641
238.0, 102392.375, 36894.34765625, 56789.65625, 164.59823608398438, 73639.71875, 55264.0390625, 97884.8125, 49111.00390625, 116856.125, 187500.0, -179855.140625, 187500.0, -182282.046875, -158968.3125, -181561.046875, 187500.0, -0.036000002175569534, 0.8940000534057617, 0.35600000619888306, 192.0, 0.0, 0.0, 0.0, 0.0, 0.0, 0.0, 0.0, 0.0, 0.0, 1.6170057036416385E9, 2021-03-29 11:15:03.641
240.0, 98813.6171875, 38169.78125, 58151.7265625, 1519.896240234375, 74971.9765625, 56615.24609375, 99227.5703125, 50384.98828125, 119681.765625, 187500.0, -178123.34375, 187500.0, -181595.640625, -158242.8125, -181483.640625, 187500.0, -0.036000002175569534, 0.8940000534057617, 0.35600000619888306, 192.0, 0.0, 0.0, 0.0, 0.0, 0.0, 0.0, 0.0, 0.0, 0.0, 1.6170057036416433E9, 2021-03-29 11:15:03.641
242.0, 101172.2421875, 37740.8984375, 57625.41015625, 995.5913696289062, 74475.4765625, 56112.44140625, 98646.25, 49964.73046875, 115477.625, 187500.0, -181193.6875, 187500.0, -182730.90625, -160121.4375, -181880.515625, 187500.0, -0.036000002175569534, 0.8940000534057617, 0.35600000619888306, 192.0, 0.0, 0.0, 0.0, 0.0, 0.0, 0.0, 0.0, 0.0, 0.0, 1.6170057036416488E9, 2021-03-29 11:15:03.641
244.0, 100759.1328125, 37140.21484375, 57101.91015625, 460.58001708984375, 73927.09375, 55569.921875, 98220.6484375, 49364.4296875, 120520.9609375, 187500.0, -177962.421875, 187500.0, -181410.171875, -158654.859375, -181457.328125, 187500.0, -0.036000002175569534, 0.8940000534057617, 0.35600000619888306, 192.0, 0.0, 0.0, 0.0, 0.0, 0.0, 0.0, 0.0, 0.0, 0.0, 1.6170057036416543E9, 2021-03-29 11:15:03.641
246.0, 99274.421875, 38310.59765625, 58256.98046875, 1611.650146484375, 75090.953125, 56724.234375, 99333.9453125, 50552.4453125, 117101.921875, 187500.0, -180556.265625, 187500.0, -182413.03125, -160207.671875, -181576.40625, 187500.0, -0.04000000283122063, 0.8980000615119934, 0.35600000619888306, 192.0, 127.0, 96.0, 14.0, 8.0, 5.5, 16.0, 0.0, 0.0, 0.0, 1.61700570364166E9, 2021-03-29 11:15:03.641
248.0, 102353.2421875, 36834.62109375, 56733.77734375, 80.89096069335938, 73579.5234375, 55190.8359375, 97797.9765625, 49052.95703125, 117882.5625, 187500.0, -179912.34375, 187500.0, -182229.0, -160359.765625, -181504.046875, 187500.0, -0.04000000283122063, 0.8980000615119934, 0.35600000619888306, 192.0, 0.0, 0.0, 0.0, 0.0, 0.0, 0.0, 0.0, 0.0, 0.0, 1.6170057036416652E9, 2021-03-29 11:15:03.641
250.0, 98771.6171875, 38039.2265625, 58035.2734375, 1375.2357177734375, 74850.3828125, 56473.9375, 99069.3203125, 50274.66015625, 120859.40625, 187500.0, -177823.3125, 187500.0, -181516.390625, -159611.8125, -181424.125, 187500.0, -0.04000000283122063, 0.8980000615119934, 0.35600000619888306, 192.0, 0.0, 0.0, 0.0, 0.0, 0.0, 0.0, 0.0, 0.0, 0.0, 1.6170057036416705E9, 2021-03-29 11:15:03.641
252.0, 101063.703125, 37605.19921875, 57507.640625, 856.6976318359375, 74359.3984375, 55971.9609375, 98538.8671875, 49840.3203125, 116648.5625, 187500.0, -180953.5, 187500.0, -182697.65625, -161528.40625, -181832.859375, 187500.0, -0.04000000283122063, 0.8980000615119934, 0.35600000619888306, 192.0, 0.0, 0.0, 0.0, 0.0, 0.0, 0.0, 0.0, 0.0, 0.0, 1.6170057036416762E9, 2021-03-29 11:15:03.641
254.0, 100728.3125, 36953.625, 56926.11328125, 269.02557373046875, 73750.921875, 55371.953125, 98002.609375, 49187.46875, 121773.28125, 187500.0, -177733.5625, 187500.0, -181407.625, -160066.734375, -181410.125, 187500.0, -0.04000000283122063, 0.8980000615119934, 0.35600000619888306, 192.0, 0.0, 0.0, 0.0, 0.0, 0.0, 0.0, 0.0, 0.0, 0.0, 1.6170057036416836E9, 2021-03-29 11:15:03.641
0.0, 99156.9140625, 38134.64453125, 58087.33203125, 1429.77392578125, 74923.2421875, 56540.5, 99147.015625, 50415.98828125, 118559.546875, 187500.0, -180122.828125, 187500.0, -182385.28125, -161546.15625, -181516.75, 187500.0, -0.04000000283122063, 0.9040000438690186, 0.3580000102519989, 192.0, 127.0, 96.0, 14.0, 32.0, 5.5, 24.0, 0.0, 0.0, 0.0, 1.6170057036416879E9, 2021-03-29 11:15:03.641
2.0, 102208.1953125, 36638.890625, 56530.84375, -129.3942413330078, 73379.1875, 55000.5546875, 97552.640625, 48858.51953125, 119324.265625, 187500.0, -179886.90625, 187500.0, -182218.09375, -161672.046875, -181420.25, 187500.0, -0.04000000283122063, 0.9040000438690186, 0.3580000102519989, 192.0, 0.0, 0.0, 0.0, 0.0, 0.0, 0.0, 0.0, 0.0, 0.0, 1.6170057036416924E9, 2021-03-29 11:15:03.641
4.0, 98622.796875, 37803.75, 57788.9140625, 1122.638671875, 74608.2421875, 56236.18359375, 98842.0, 50067.81640625, 122473.203125, 187500.0, -177932.390625, 187500.0, -181471.953125, -160836.203125, -181370.96875, 187500.0, -0.04000000283122063, 0.9040000438690186, 0.3580000102519989, 192.0, 0.0, 0.0, 0.0, 0.0, 0.0, 0.0, 0.0, 0.0, 0.0, 1.6170057036416967E9, 2021-03-29 11:15:03.641
6.0, 100907.4609375, 37484.58984375, 57364.90234375, 706.7174072265625, 74222.71875, 55846.32421875, 98387.0078125, 49765.53125, 118186.3671875, 187500.0, -181058.21875, 187500.0, -182671.171875, -162747.1875, -181792.90625, 187500.0, -0.04000000283122063, 0.9040000438690186, 0.3580000102519989, 192.0, 0.0, 0.0, 0.0, 0.0, 0.0, 0.0, 0.0, 0.0, 0.0, 1.6170057036417012E9, 2021-03-29 11:15:03.641
8.0, 100669.9765625, 36758.89453125, 56701.63671875, 30.532482147216797, 73533.28125, 55169.734375, 97752.8671875, 49009.75, 123240.3203125, 187500.0, -177804.703125, 187500.0, -181374.078125, -161290.40625, -181375.09375, 187500.0, -0.04000000283122063, 0.9040000438690186, 0.3580000102519989, 192.0, 0.0, 0.0, 0.0, 0.0, 0.0, 0.0, 0.0, 0.0, 0.0, 1.6170057036417055E9, 2021-03-29 11:15:03.641
10.0, 99037.0234375, 38051.9453125, 57976.3984375, 1304.492431640625, 74818.0390625, 56451.38671875, 99038.5, 50337.24609375, 120047.796875, 187500.0, -180083.375, 187500.0, -182320.640625, -162757.96875, -181477.5, 187500.0, -0.036000002175569534, 0.8940000534057617, 0.35600000619888306, 192.0, 127.0, 112.0, 13.5, 120.0, 5.5, 16.0, 0.0, 0.0, 0.0, 1.61700570364171E9, 2021-03-29 11:15:03.641
12.0, 102199.4609375, 36591.2109375, 56457.48828125, -218.82357788085938, 73315.53125, 54934.88671875, 97467.5703125, 48848.03515625, 120591.2109375, 187500.0, -179894.171875, 187500.0, -182169.734375, -162968.953125, -181397.40625, 187500.0, -0.036000002175569534, 0.8940000534057617, 0.35600000619888306, 192.0, 0.0, 0.0, 0.0, 0.0, 0.0, 0.0, 0.0, 0.0, 0.0, 1.6170057036417143E9, 2021-03-29 11:15:03.641
14.0, 98615.890625, 37718.703125, 57696.01953125, 1007.8177490234375, 74521.4765625, 56151.89453125, 98765.9375, 50015.4921875, 123735.96875, 187500.0, -177855.03125, 187500.0, -181367.40625, -162118.265625, -181313.078125, 187500.0, -0.036000002175569534, 0.8940000534057617, 0.35600000619888306, 192.0, 0.0, 0.0, 0.0, 0.0, 0.0, 0.0, 0.0, 0.0, 0.0, 1.6170057036417189E9, 2021-03-29 11:15:03.641
16.0, 100790.359375, 37373.96875, 57268.9453125, 573.9480590820312, 74125.265625, 55740.5546875, 98293.734375, 49662.625, 119249.90625, 187500.0, -181054.78125, 187500.0, -182565.015625, -164069.375, -181738.734375, 187500.0, -0.036000002175569534, 0.8940000534057617, 0.35600000619888306, 192.0, 0.0, 0.0, 0.0, 0.0, 0.0, 0.0, 0.0, 0.0, 0.0, 1.6170057036417232E9, 2021-03-29 11:15:03.641
18.0, 100593.9296875, 36572.59375, 56545.44140625, -151.3660125732422, 73366.5625, 54985.82421875, 97573.609375, 48843.76953125, 124217.421875, 187500.0, -177870.015625, 187500.0, -181263.59375, -162632.5625, -181312.09375, 187500.0, -0.036000002175569534, 0.8940000534057617, 0.35600000619888306, 192.0, 0.0, 0.0, 0.0, 0.0, 0.0, 0.0, 0.0, 0.0, 0.0, 1.6170057036417277E9, 2021-03-29 11:15:03.641
20.0, 98867.4609375, 37885.35546875, 57848.03515625, 1158.71435546875, 74679.1875, 56303.50390625, 98856.1484375, 50204.9453125, 121187.890625, 187500.0, -180135.875, 187500.0, -182204.0, -164019.28125, -181496.109375, 187500.0, -0.04000000283122063, 0.9120000600814819, 0.35200002789497375, 192.0, 127.0, 96.0, 14.0, 64.0, 5.5, 0.0, 0.0, 0.0, 0.0, 1.617005703641732E9, 2021-03-29 11:15:03.641
22.0, 102038.5234375, 36386.2265625, 56284.640625, -411.4732360839844, 73144.1796875, 54758.015625, 97310.125, 48705.140625, 121690.0703125, 187500.0, -180093.609375, 187500.0, -182131.6875, -164259.984375, -181465.453125, 187500.0, -0.04000000283122063, 0.9120000600814819, 0.35200002789497375, 192.0, 0.0, 0.0, 0.0, 0.0, 0.0, 0.0, 0.0, 0.0, 0.0, 1.6170057036417365E9, 2021-03-29 11:15:03.641
24.0, 98511.9609375, 37545.3203125, 57541.0546875, 834.5247192382812, 74362.015625, 55992.0546875, 98565.515625, 49844.859375, 125086.6171875, 187500.0, -178062.234375, 187500.0, -181373.296875, -163392.453125, -181284.265625, 187500.0, -0.04000000283122063, 0.9120000600814819, 0.35200002789497375, 192.0, 0.0, 0.0, 0.0, 0.0, 0.0, 0.0, 0.0, 0.0, 0.0, 1.6170057037367303E9, 2021-03-29 11:15:03.736
26.0, 100616.0625, 37181.65625, 57075.04296875, 376.4704284667969, 73927.0703125, 55559.640625, 98073.5078125, 49507.078125, 120662.78125, 187500.0, -181423.78125, 187500.0, -182652.375, -165402.296875, -181721.375, 187500.0, -0.04000000283122063, 0.9120000600814819, 0.35200002789497375, 192.0, 0.0, 0.0, 0.0, 0.0, 0.0, 0.0, 0.0, 0.0, 0.0, 1.6170057037367506E9, 2021-03-29 11:15:03.736
28.0, 100524.7734375, 36410.9453125, 56364.05859375, -343.2110290527344, 73195.4375, 54827.26171875, 97357.15625, 48744.68359375, 125594.625, 187500.0, -177644.109375, 187500.0, -181423.15625, -163992.4375, -181352.171875, 187500.0, -0.04000000283122063, 0.9120000600814819, 0.35200002789497375, 192.0, 0.0, 0.0, 0.0, 0.0, 0.0, 0.0, 0.0, 0.0, 0.0, 1.6170057037367563E9, 2021-03-29 11:15:03.736
30.0, 98699.015625, 37606.96484375, 57547.203125, 837.7210083007812, 74390.046875, 56038.03515625, 98577.15625, 49971.5234375, 122574.8359375, 187500.0, -179770.890625, 187500.0, -182298.5, -165361.796875, -181465.3125, 187500.0, -0.04000000283122063, 0.9040000438690186, 0.3700000047683716, 192.0, 127.0, 96.0, 14.0, 32.0, 5.5, 72.0, 0.0, 0.0, 0.0, 1.6170057037367616E9, 2021-03-29 11:15:03.736
32.0, 101824.8671875, 36161.5, 56036.0, -676.5202026367188, 72902.2265625, 54539.08203125, 97046.6015625, 48487.52734375, 122830.40625, 187500.0, -179752.5625, 187500.0, -182217.421875, -165668.75, -181400.609375, 187500.0, -0.04000000283122063, 0.9040000438690186, 0.3700000047683716, 192.0, 0.0, 0.0, 0.0, 0.0, 0.0, 0.0, 0.0, 0.0, 0.0, 1.617005703736772E9, 2021-03-29 11:15:03.736
34.0, 98309.875, 37288.5859375, 57265.66015625, 552.1104125976562, 74090.015625, 55741.60546875, 98276.015625, 49615.3046875, 126128.8515625, 187500.0, -177564.046875, 187500.0, -181354.765625, -164765.203125, -181229.5625, 187500.0, -0.04000000283122063, 0.9040000438690186, 0.3700000047683716, 192.0, 0.0, 0.0, 0.0, 0.0, 0.0, 0.0, 0.0, 0.0, 0.0, 1.6170057037367775E9, 2021-03-29 11:15:03.736
36.0, 100387.203125, 37048.10546875, 56937.109375, 216.52134704589844, 73784.578125, 55424.078125, 97935.0625, 49396.125, 121443.4375, 187500.0, -180857.859375, 187500.0, -182579.078125, -166781.40625, -181648.3125, 187500.0, -0.04000000283122063, 0.9040000438690186, 0.3700000047683716, 192.0, 0.0, 0.0, 0.0, 0.0, 0.0, 0.0, 0.0, 0.0, 0.0, 1.617005703736784E9, 2021-03-29 11:15:03.736
38.0, 100440.0625, 36280.25390625, 56238.59765625, -500.18731689453125, 73053.2109375, 54698.11328125, 97219.53125, 48617.41015625, 126253.1328125, 187500.0, -177740.015625, 187500.0, -181315.09375, -165395.65625, -181239.9375, 187500.0, -0.04000000283122063, 0.9040000438690186, 0.3700000047683716, 192.0, 0.0, 0.0, 0.0, 0.0, 0.0, 0.0, 0.0, 0.0, 0.0, 1.6170057037367897E9, 2021-03-29 11:15:03.736
40.0, 98568.4140625, 37508.50390625, 57446.86328125, 711.54541015625, 74283.7421875, 55929.29296875, 98451.046875, 49883.1015625, 123373.9609375, 187500.0, -179828.765625, 187500.0, -182178.796875, -166726.0625, -181340.546875, 187500.0, -0.036000002175569534, 0.9000000357627869, 0.36000001430511475, 192.0, 127.0, 112.0, 14.0, 16.0, 5.5, 32.0, 0.0, 0.0, 0.0, 1.617005703736796E9, 2021-03-29 11:15:03.736
42.0, 101788.65625, 36109.01953125, 55969.03515625, -765.6142578125, 72834.09375, 54476.02734375, 96955.40625, 48438.375, 123581.625, 187500.0, -179890.09375, 187500.0, -182151.9375, -167051.015625, -181291.46875, 187500.0, -0.036000002175569534, 0.9000000357627869, 0.36000001430511475, 192.0, 0.0, 0.0, 0.0, 0.0, 0.0, 0.0, 0.0, 0.0, 0.0, 1.6170057039682367E9, 2021-03-29 11:15:03.968
44.0, 98356.5, 37222.13671875, 57167.40234375, 421.0621337890625, 73998.1484375, 55662.14453125, 98162.640625, 49594.71875, 127119.2421875, 187500.0, -177619.1875, 187500.0, -181304.6875, -166075.046875, -181169.875, 187500.0, -0.036000002175569534, 0.9000000357627869, 0.36000001430511475, 192.0, 0.0, 0.0, 0.0, 0.0, 0.0, 0.0, 0.0, 0.0, 0.0, 1.6170057039683158E9, 2021-03-29 11:15:03.968
46.0, 100356.2421875, 36970.23046875, 56829.5546875, 79.54985809326172, 73696.1796875, 55338.6015625, 97838.859375, 49330.20703125, 122517.0625, 187500.0, -180958.109375, 187500.0, -182571.203125, -168075.296875, -181626.921875, 187500.0, -0.036000002175569534, 0.9000000357627869, 0.36000001430511475, 192.0, 0.0, 0.0, 0.0, 0.0, 0.0, 0.0, 0.0, 0.0, 0.0, 1.6170057039683218E9, 2021-03-29 11:15:03.968
48.0, 100424.59375, 36071.15625, 55998.89453125, -757.8582153320312, 72830.8984375, 54477.79296875, 96983.390625, 48398.34375, 127368.1953125, 187500.0, -177861.1875, 187500.0, -181311.375, -166663.609375, -181245.171875, 187500.0, -0.036000002175569534, 0.9000000357627869, 0.36000001430511475, 192.0, 0.0, 0.0, 0.0, 0.0, 0.0, 0.0, 0.0, 0.0, 0.0, 1.6170057039683275E9, 2021-03-29 11:15:03.968
50.0, 98417.03125, 37393.23828125, 57323.23828125, 571.0423583984375, 74166.2109375, 55810.359375, 98297.046875, 49751.76171875, 124586.875, 187500.0, -179871.03125, 187500.0, -182130.75, -167927.796875, -181324.1875, 187500.0, -0.036000002175569534, 0.89000004529953, 0.3540000021457672, 192.0, 127.0, 112.0, 13.5, 104.0, 5.5, 8.0, 0.0, 0.0, 0.0, 1.6170057039683335E9, 2021-03-29 11:15:03.968
52.0, 101658.234375, 35969.58984375, 55838.90234375, -915.996826171875, 72706.0859375, 54340.08203125, 96814.8125, 48329.72265625, 124658.1328125, 187500.0, -180046.171875, 187500.0, -182121.21875, -168295.078125, -181275.703125, 187500.0, -0.036000002175569534, 0.89000004529953, 0.3540000021457672, 192.0, 0.0, 0.0, 0.0, 0.0, 0.0, 0.0, 0.0, 0.0, 0.0, 1.6170057039683397E9, 2021-03-29 11:15:03.968
54.0, 98231.84375, 37020.58984375, 57002.04296875, 236.63790893554688, 73823.671875, 55469.7421875, 97936.4453125, 49360.36328125, 128323.3046875, 187500.0, -177759.265625, 187500.0, -181225.4375, -167309.546875, -181136.359375, 187500.0, -0.036000002175569534, 0.89000004529953, 0.3540000021457672, 192.0, 0.0, 0.0, 0.0, 0.0, 0.0, 0.0, 0.0, 0.0, 0.0, 1.6170057039683452E9, 2021-03-29 11:15:03.968
56.0, 100158.5, 36763.03125, 56653.87109375, -105.61199188232422, 73510.640625, 55143.5625, 97621.2421875, 49147.1484375, 123672.0390625, 187500.0, -181276.28125, 187500.0, -182532.203125, -169379.40625, -181602.640625, 187500.0, -0.036000002175569534, 0.89000004529953, 0.3540000021457672, 192.0, 0.0, 0.0, 0.0, 0.0, 0.0, 0.0, 0.0, 0.0, 0.0, 1.6170057039683511E9, 2021-03-29 11:15:03.968
58.0, 100334.5859375, 35878.1484375, 55822.71875, -948.7197875976562, 72656.9609375, 54307.359375, 96774.7109375, 48243.19921875, 128484.84375, 187500.0, -177609.53125, 187500.0, -181340.171875, -168070.96875, -181230.859375, 187500.0, -0.036000002175569534, 0.89000004529953, 0.3540000021457672, 192.0, 0.0, 0.0, 0.0, 0.0, 0.0, 0.0, 0.0, 0.0, 0.0, 1.617005703968357E9, 2021-03-29 11:15:03.968
60.0, 98285.8671875, 37232.83984375, 57176.3203125, 400.90087890625, 74014.6484375, 55649.31640625, 98120.6484375, 49619.3515625, 125880.75, 187500.0, -179503.484375, 187500.0, -182137.203125, -169365.78125, -181316.265625, 187500.0, -0.03800000250339508, 0.8940000534057617, 0.3620000183582306, 192.0, 127.0, 104.0, 13.5, 120.0, 5.5, 40.0, 0.0, 0.0, 0.0, 1.617005703968363E9, 2021-03-29 11:15:03.968
62.0, 101524.34375, 35803.78125, 55682.57421875, -1097.0682373046875, 72537.9765625, 54167.26171875, 96607.7421875, 48163.71484375, 125860.8828125, 187500.0, -179770.3125, 187500.0, -182166.15625, -169794.734375, -181286.765625, 187500.0, -0.03800000250339508, 0.8940000534057617, 0.3620000183582306, 192.0, 0.0, 0.0, 0.0, 0.0, 0.0, 0.0, 0.0, 0.0, 0.0, 1.6170057039683688E9, 2021-03-29 11:15:03.968
64.0, 98092.078125, 36798.8828125, 56781.4765625, -8.717180252075195, 73594.2578125, 55238.01953125, 97681.2578125, 49167.62109375, 129587.1171875, 187500.0, -177403.046875, 187500.0, -181230.265625, -168744.125, -181116.109375, 187500.0, -0.03800000250339508, 0.8940000534057617, 0.3620000183582306, 192.0, 0.0, 0.0, 0.0, 0.0, 0.0, 0.0, 0.0, 0.0, 0.0, 1.6170057039683745E9, 2021-03-29 11:15:03.968
66.0, 99984.625, 36696.98046875, 56584.98046875, -201.7244873046875, 73429.390625, 55088.44140625, 97505.5, 49071.7109375, 124876.578125, 187500.0, -180821.265625, 187500.0, -182507.578125, -170776.125, -181571.421875, 187500.0, -0.03800000250339508, 0.8940000534057617, 0.3620000183582306, 192.0, 0.0, 0.0, 0.0, 0.0, 0.0, 0.0, 0.0, 0.0, 0.0, 1.6170057039683833E9, 2021-03-29 11:15:03.968
68.0, 100329.1328125, 35819.36328125, 55755.73046875, -1034.6845703125, 72589.5859375, 54221.59765625, 96690.046875, 48197.98046875, 129590.46875, 187500.0, -177815.609375, 187500.0, -181280.203125, -169448.28125, -181182.75, 187500.0, -0.03800000250339508, 0.8940000534057617, 0.3620000183582306, 192.0, 0.0, 0.0, 0.0, 0.0, 0.0, 0.0, 0.0, 0.0, 0.0, 1.6170057039683893E9, 2021-03-29 11:15:03.968
70.0, 98196.0625, 37150.8125, 57077.90625, 290.706787109375, 73926.0, 55613.55078125, 98020.578125, 49556.67578125, 127011.5703125, 187500.0, -179688.796875, 187500.0, -182036.0625, -170688.46875, -181241.84375, 187500.0, -0.036000002175569534, 0.9000000357627869, 0.3620000183582306, 192.0, 127.0, 112.0, 14.0, 16.0, 5.5, 40.0, 0.0, 0.0, 0.0, 1.617005703968395E9, 2021-03-29 11:15:03.968
72.0, 101479.1328125, 35768.0859375, 55613.640625, -1168.6832275390625, 72487.640625, 54208.05078125, 96540.21875, 48131.484375, 126791.4296875, 187500.0, -180064.703125, 187500.0, -182085.6875, -171176.3125, -181213.203125, 187500.0, -0.036000002175569534, 0.9000000357627869, 0.3620000183582306, 192.0, 0.0, 0.0, 0.0, 0.0, 0.0, 0.0, 0.0, 0.0, 0.0, 1.6170057039684007E9, 2021-03-29 11:15:03.968
74.0, 98077.3984375, 36747.31640625, 56700.6953125, -79.54985809326172, 73612.4921875, 55262.046875, 97630.203125, 49139.14453125, 130594.6015625, 187500.0, -177687.5625, 187500.0, -181116.359375, -170114.515625, -181050.171875, 187500.0, -0.036000002175569534, 0.9000000357627869, 0.3620000183582306, 192.0, 0.0, 0.0, 0.0, 0.0, 0.0, 0.0, 0.0, 0.0, 0.0, 1.617005703968407E9, 2021-03-29 11:15:03.968
76.0, 99917.125, 36610.9921875, 56482.36328125, -299.2451477050781, 73366.890625, 54990.20703125, 97404.4765625, 48994.77734375, 125799.2109375, 187500.0, -181286.34375, 187500.0, -182440.046875, -172205.515625, -181549.21875, 187500.0, -0.036000002175569534, 0.9000000357627869, 0.3620000183582306, 192.0, 0.0, 0.0, 0.0, 0.0, 0.0, 0.0, 0.0, 0.0, 0.0, 1.6170057039684126E9, 2021-03-29 11:15:03.968
78.0, 100316.96875, 35702.3515625, 55615.98828125, -1164.6375732421875, 72471.4140625, 54112.36328125, 96505.6640625, 48095.51953125, 130454.03125, 187500.0, -177731.5625, 187500.0, -181263.046875, -170902.1875, -181197.40625, 187500.0, -0.036000002175569534, 0.9000000357627869, 0.3620000183582306, 192.0, 0.0, 0.0, 0.0, 0.0, 0.0, 0.0, 0.0, 0.0, 0.0, 1.6170057039684184E9, 2021-03-29 11:15:03.968
80.0, 98110.2265625, 37069.13671875, 56984.85546875, 210.53106689453125, 73858.3671875, 55490.328125, 97923.0078125, 49444.89453125, 128055.3984375, 187500.0, -179557.59375, 187500.0, -181993.21875, -172006.640625, -181258.0, 187500.0, -0.03400000184774399, 0.8980000615119934, 0.3540000021457672, 192.0, 127.0, 120.0, 14.0, 8.0, 5.5, 8.0, 0.0, 0.0, 0.0, 1.617005703968424E9, 2021-03-29 11:15:03.968
82.0, 101367.1015625, 35645.53125, 55486.70703125, -1283.7723388671875, 72390.8828125, 54012.69921875, 96413.3515625, 48034.5, 127789.8828125, 187500.0, -180134.421875, 187500.0, -182088.03125, -172422.828125, -181248.5625, 187500.0, -0.03400000184774399, 0.8980000615119934, 0.3540000021457672, 192.0, 0.0, 0.0, 0.0, 0.0, 0.0, 0.0, 0.0, 0.0, 0.0, 1.6170057039684305E9, 2021-03-29 11:15:03.968
84.0, 98018.09375, 36627.734375, 56580.17578125, -198.72935485839844, 73446.4921875, 55097.0703125, 97480.625, 49050.34375, 131775.75, 187500.0, -177799.71875, 187500.0, -181117.78125, -171233.203125, -181035.875, 187500.0, -0.03400000184774399, 0.8980000615119934, 0.3540000021457672, 192.0, 0.0, 0.0, 0.0, 0.0, 0.0, 0.0, 0.0, 0.0, 0.0, 1.6170057039684362E9, 2021-03-29 11:15:03.968
86.0, 99761.78125, 36460.27734375, 56315.6875, -456.9143371582031, 73224.984375, 54848.765625, 97222.0859375, 48834.4453125, 127032.578125, 187500.0, -181500.0625, 187500.0, -182468.890625, -173255.671875, -181534.421875, 187500.0, -0.03400000184774399, 0.8980000615119934, 0.3540000021457672, 192.0, 0.0, 0.0, 0.0, 0.0, 0.0, 0.0, 0.0, 0.0, 0.0, 1.6170057039684424E9, 2021-03-29 11:15:03.968
88.0, 100234.2265625, 35524.72265625, 55427.69921875, -1359.365966796875, 72314.9765625, 53962.16015625, 96347.171875, 47952.69140625, 131674.25, 187500.0, -177975.421875, 187500.0, -181347.984375, -171954.53125, -181203.328125, 187500.0, -0.03400000184774399, 0.8980000615119934, 0.3540000021457672, 192.0, 0.0, 0.0, 0.0, 0.0, 0.0, 0.0, 0.0, 0.0, 0.0, 1.6170057039684484E9, 2021-03-29 11:15:03.968
90.0, 97996.5, 36945.51171875, 56846.9453125, 62.048439025878906, 73732.7734375, 55391.77734375, 97772.8046875, 49360.3828125, 129396.078125, 187500.0, -179769.84375, 187500.0, -182033.109375, -173051.765625, -181271.796875, 187500.0, -0.03400000184774399, 0.8920000195503235, 0.36400002241134644, 192.0, 127.0, 120.0, 13.5, 112.0, 5.5, 48.0, 0.0, 0.0, 0.0, 1.6170057039684544E9, 2021-03-29 11:15:03.968
92.0, 101245.796875, 35476.0625, 55296.8515625, -1489.5426025390625, 72215.0, 53861.421875, 96218.4453125, 47900.8828125, 128919.046875, 187500.0, -180085.921875, 187500.0, -182198.234375, -173600.03125, -181313.796875, 187500.0, -0.03400000184774399, 0.8920000195503235, 0.36400002241134644, 192.0, 0.0, 0.0, 0.0, 0.0, 0.0, 0.0, 0.0, 0.0, 0.0, 1.61700570396846E9, 2021-03-29 11:15:03.968
94.0, 97911.8125, 36368.1640625, 56285.7578125, -506.6916809082031, 73174.2890625, 54846.640625, 97203.9765625, 48780.24609375, 132882.796875, 187500.0, -177240.8125, 187500.0, -181199.171875, -172464.4375, -180967.734375, 187500.0, -0.03400000184774399, 0.8920000195503235, 0.36400002241134644, 192.0, 0.0, 0.0, 0.0, 0.0, 0.0, 0.0, 0.0, 0.0, 0.0, 1.6170057039684663E9, 2021-03-29 11:15:03.968
96.0, 99578.4296875, 36339.84375, 56167.71875, -620.640869140625, 73087.1640625, 54746.68359375, 97070.8984375, 48755.390625, 127987.6015625, 187500.0, -180823.5, 187500.0, -182473.328125, -174569.046875, -181245.953125, 187500.0, -0.03400000184774399, 0.8920000195503235, 0.36400002241134644, 192.0, 0.0, 0.0, 0.0, 0.0, 0.0, 0.0, 0.0, 0.0, 0.0, 1.617005703968472E9, 2021-03-29 11:15:03.968
98.0, 100179.953125, 35407.44140625, 55291.015625, -1509.3238525390625, 72175.2109375, 53856.70703125, 96171.0390625, 47803.2734375, 132466.84375, 187500.0, -178044.71875, 187500.0, -181274.40625, -173304.953125, -180891.4375, 187500.0, -0.03400000184774399, 0.8920000195503235, 0.36400002241134644, 192.0, 0.0, 0.0, 0.0, 0.0, 0.0, 0.0, 0.0, 0.0, 0.0, 1.6170057039684777E9, 2021-03-29 11:15:03.968
100.0, 97808.3671875, 36784.84375, 56682.2109375, -114.84326171875, 73566.9609375, 55215.40234375, 97588.09375, 49190.6875, 130253.984375, 187500.0, -179911.0625, 187500.0, -181894.875, -174380.796875, -181279.234375, 187500.0, -0.03400000184774399, 0.8940000534057617, 0.35600000619888306, 192.0, 127.0, 120.0, 13.5, 120.0, 5.5, 16.0, 0.0, 0.0, 0.0, 1.6170057039684856E9, 2021-03-29 11:15:03.968
102.0, 101038.2421875, 35369.17578125, 55203.59765625, -1599.69189453125, 72101.140625, 53766.89453125, 96074.8984375, 47804.03125, 129637.875, 187500.0, -180311.96875, 187500.0, -182088.125, -174995.890625, -181387.390625, 187500.0, -0.03400000184774399, 0.8940000534057617, 0.35600000619888306, 192.0, 0.0, 0.0, 0.0, 0.0, 0.0, 0.0, 0.0, 0.0, 0.0, 1.6170057039684918E9, 2021-03-29 11:15:03.968
104.0, 97801.5546875, 36281.640625, 56229.72265625, -585.4368896484375, 73086.2421875, 54772.2109375, 97067.34375, 48707.2890625, 133727.515625, 187500.0, -177422.828125, 187500.0, -181084.546875, -173871.640625, -181030.796875, 187500.0, -0.03400000184774399, 0.8940000534057617, 0.35600000619888306, 192.0, 0.0, 0.0, 0.0, 0.0, 0.0, 0.0, 0.0, 0.0, 0.0, 1.6170057039684975E9, 2021-03-29 11:15:03.968
106.0, 99409.109375, 36202.26953125, 56063.78515625, -750.1692504882812, 72952.8515625, 54610.5625, 96959.625, 48668.6875, 128869.4453125, 187500.0, -181194.1875, 187500.0, -182430.015625, -176005.515625, -181316.453125, 187500.0, -0.03400000184774399, 0.8940000534057617, 0.35600000619888306, 192.0, 0.0, 0.0, 0.0, 0.0, 0.0, 0.0, 0.0, 0.0, 0.0, 1.6170057039942174E9, 2021-03-29 11:15:03.994
108.0, 100042.359375, 35169.26171875, 55072.10546875, -1754.2989501953125, 71917.2734375, 53584.19140625, 95945.890625, 47575.75390625, 133361.953125, 187500.0, -177830.578125, 187500.0, -181326.375, -174806.53125, -180975.0, 187500.0, -0.03400000184774399, 0.8940000534057617, 0.35600000619888306, 192.0, 0.0, 0.0, 0.0, 0.0, 0.0, 0.0, 0.0, 0.0, 0.0, 1.6170057043179383E9, 2021-03-29 11:15:04.317
110.0, 97643.2578125, 36599.16796875, 56509.8125, -315.94189453125, 73368.8125, 55039.0, 97377.0, 49024.19140625, 131396.09375, 187500.0, -179520.078125, 187500.0, -181928.75, -175825.125, -181211.234375, 187500.0, -0.04200000315904617, 0.9020000696182251, 0.3700000047683716, 192.0, 127.0, 88.0, 14.0, 24.0, 5.5, 72.0, 0.0, 0.0, 0.0, 1.6170057043179448E9, 2021-03-29 11:15:04.317
112.0, 100929.2734375, 35204.734375, 55030.171875, -1797.259033203125, 71917.7421875, 53616.1796875, 95854.671875, 47644.23828125, 130761.078125, 187500.0, -180098.0625, 187500.0, -182162.203125, -176476.03125, -181319.765625, 187500.0, -0.04200000315904617, 0.9020000696182251, 0.3700000047683716, 192.0, 0.0, 0.0, 0.0, 0.0, 0.0, 0.0, 0.0, 0.0, 0.0, 1.6170057043179502E9, 2021-03-29 11:15:04.317
114.0, 97696.3671875, 35973.92578125, 55905.53125, -929.7207641601562, 72775.0234375, 54462.796875, 96814.9453125, 48476.73046875, 134958.59375, 187500.0, -177141.5625, 187500.0, -181128.578125, -175312.0625, -180973.5, 187500.0, -0.04200000315904617, 0.9020000696182251, 0.3700000047683716, 192.0, 0.0, 0.0, 0.0, 0.0, 0.0, 0.0, 0.0, 0.0, 0.0, 1.6170057043179548E9, 2021-03-29 11:15:04.317
116.0, 99252.3359375, 36069.859375, 55892.14453125, -934.9734497070312, 72795.0234375, 54443.28125, 96784.75, 48519.2890625, 130038.9375, 187500.0, -180743.375, 187500.0, -182412.53125, -177403.3125, -181232.921875, 187500.0, -0.04200000315904617, 0.9020000696182251, 0.3700000047683716, 192.0, 0.0, 0.0, 0.0, 0.0, 0.0, 0.0, 0.0, 0.0, 0.0, 1.6170057043179598E9, 2021-03-29 11:15:04.317
118.0, 100076.421875, 35101.84765625, 54946.46484375, -1882.106201171875, 71835.796875, 53502.36328125, 95844.9921875, 47562.8125, 134359.078125, 187500.0, -177980.28125, 187500.0, -181256.234375, -176174.125, -180875.421875, 187500.0, -0.04200000315904617, 0.9020000696182251, 0.3700000047683716, 192.0, 0.0, 0.0, 0.0, 0.0, 0.0, 0.0, 0.0, 0.0, 0.0, 1.6170057043179646E9, 2021-03-29 11:15:04.317
120.0, 97641.3828125, 36619.01953125, 56478.33984375, -351.7493896484375, 73364.125, 55033.9921875, 97338.671875, 49070.03515625, 132321.625, 187500.0, -179536.375, 187500.0, -181781.84375, -177135.890625, -181201.625, 187500.0, -0.030000001192092896, 0.8880000710487366, 0.3460000157356262, 192.0, 127.5, 8.0, 13.5, 96.0, 5.0, 104.0, 0.0, 0.0, 0.0, 1.617005704317969E9, 2021-03-29 11:15:04.317
122.0, 100875.1640625, 35170.71484375, 54979.90234375, -1854.3006591796875, 71883.4296875, 53542.68359375, 95849.953125, 47636.3046875, 131376.984375, 187500.0, -180102.53125, 187500.0, -181994.0625, -177862.015625, -181271.125, 187500.0, -0.030000001192092896, 0.8880000710487366, 0.3460000157356262, 192.0, 0.0, 0.0, 0.0, 0.0, 0.0, 0.0, 0.0, 0.0, 0.0, 1.6170057043179739E9, 2021-03-29 11:15:04.317
124.0, 97631.140625, 35892.40625, 55831.9296875, -1019.4630126953125, 72684.5390625, 54355.9765625, 96687.65625, 48340.875, 135607.296875, 187500.0, -177107.59375, 187500.0, -180923.375, -176672.71875, -180860.359375, 187500.0, -0.030000001192092896, 0.8880000710487366, 0.3460000157356262, 192.0, 0.0, 0.0, 0.0, 0.0, 0.0, 0.0, 0.0, 0.0, 0.0, 1.6170057043179784E9, 2021-03-29 11:15:04.317
126.0, 99059.4375, 35935.7265625, 55798.73828125, -1051.023681640625, 72673.7890625, 54334.8984375, 96613.6484375, 48435.0234375, 130714.765625, 187500.0, -180972.390625, 187500.0, -182286.625, -178814.546875, -181128.734375, 187500.0, -0.030000001192092896, 0.8880000710487366, 0.3460000157356262, 192.0, 0.0, 0.0, 0.0, 0.0, 0.0, 0.0, 0.0, 0.0, 0.0, 1.617005704317983E9, 2021-03-29 11:15:04.317
128.0, 99931.4921875, 34928.82421875, 54832.0234375, -2031.6170654296875, 71692.4609375, 53360.49609375, 95643.828125, 47377.359375, 135110.90625, 187500.0, -177846.8125, 187500.0, -181217.296875, -177677.8125, -180801.109375, 187500.0, -0.030000001192092896, 0.8880000710487366, 0.3460000157356262, 192.0, 0.0, 0.0, 0.0, 0.0, 0.0, 0.0, 0.0, 0.0, 0.0, 1.6170057043179884E9, 2021-03-29 11:15:04.317
130.0, 97369.109375, 36358.77734375, 56289.42578125, -574.5962524414062, 73155.890625, 54829.07421875, 97128.25, 48913.4375, 133454.65625, 187500.0, -179412.21875, 187500.0, -181780.515625, -178639.65625, -181123.875, 187500.0, -0.03800000250339508, 0.9040000438690186, 0.3620000183582306, 192.0, 127.0, 104.0, 14.0, 32.0, 5.5, 40.0, 0.0, 0.0, 0.0, 1.6170057043179932E9, 2021-03-29 11:15:04.317
132.0, 100625.6953125, 34943.3984375, 54786.2265625, -2081.126220703125, 71664.3203125, 53323.66015625, 95592.6171875, 47443.296875, 132626.953125, 187500.0, -180246.296875, 187500.0, -182106.765625, -179428.3125, -181221.71875, 187500.0, -0.03800000250339508, 0.9040000438690186, 0.3620000183582306, 192.0, 0.0, 0.0, 0.0, 0.0, 0.0, 0.0, 0.0, 0.0, 0.0, 1.6170057043179977E9, 2021-03-29 11:15:04.317
134.0, 97484.8984375, 35684.69140625, 55618.4453125, -1255.765625, 72455.4140625, 54137.59765625, 96436.2421875, 48154.12890625, 137112.53125, 187500.0, -177155.140625, 187500.0, -181061.484375, -178196.265625, -180877.0, 187500.0, -0.03800000250339508, 0.9040000438690186, 0.3620000183582306, 192.0, 0.0, 0.0, 0.0, 0.0, 0.0, 0.0, 0.0, 0.0, 0.0, 1.617005704318014E9, 2021-03-29 11:15:04.318
136.0, 98824.7265625, 35707.671875, 55557.875, -1306.705322265625, 72434.78125, 54123.6953125, 96386.015625, 48257.7265625, 132273.21875, 187500.0, -180982.34375, 187500.0, -182403.65625, -180074.78125, -181193.421875, 187500.0, -0.03800000250339508, 0.9040000438690186, 0.3620000183582306, 192.0, 0.0, 0.0, 0.0, 0.0, 0.0, 0.0, 0.0, 0.0, 0.0, 1.6170057043180184E9, 2021-03-29 11:15:04.318
138.0, 99696.265625, 34580.40625, 54474.21484375, -2396.039794921875, 71329.5546875, 53021.3984375, 95337.3203125, 47115.59765625, 136493.265625, 187500.0, -177820.890625, 187500.0, -181355.65625, -178975.234375, -180865.84375, 187500.0, -0.03800000250339508, 0.9040000438690186, 0.3620000183582306, 192.0, 0.0, 0.0, 0.0, 0.0, 0.0, 0.0, 0.0, 0.0, 0.0, 1.6170057043180234E9, 2021-03-29 11:15:04.318
140.0, 97041.1875, 36060.06640625, 55973.81640625, -902.4739990234375, 72818.9609375, 54518.8515625, 96792.3046875, 48598.58984375, 134759.59375, 187500.0, -179211.75, 187500.0, -181779.359375, -179724.015625, -181118.5, 187500.0, -0.030000001192092896, 0.9020000696182251, 0.36400002241134644, 192.0, 127.5, 8.0, 14.0, 24.0, 5.5, 48.0, 0.0, 0.0, 0.0, 1.6170057043180277E9, 2021-03-29 11:15:04.318
142.0, 100266.4140625, 34696.43359375, 54537.1796875, -2348.385986328125, 71402.78125, 53085.66015625, 95348.1328125, 47230.46484375, 133517.109375, 187500.0, -180142.09375, 187500.0, -182065.953125, -180315.390625, -181267.203125, 187500.0, -0.030000001192092896, 0.9020000696182251, 0.36400002241134644, 192.0, 0.0, 0.0, 0.0, 0.0, 0.0, 0.0, 0.0, 0.0, 0.0, 1.6170057043180325E9, 2021-03-29 11:15:04.318
144.0, 97181.109375, 35395.125, 55354.47265625, -1549.2440185546875, 72179.1484375, 53863.1875, 96132.1484375, 47923.92578125, 137766.453125, 187500.0, -176977.890625, 187500.0, -180927.9375, -179169.046875, -180899.5, 187500.0, -0.030000001192092896, 0.9020000696182251, 0.36400002241134644, 192.0, 0.0, 0.0, 0.0, 0.0, 0.0, 0.0, 0.0, 0.0, 0.0, 1.6170057043180368E9, 2021-03-29 11:15:04.318
146.0, 98479.234375, 35489.7421875, 55369.2265625, -1529.2169189453125, 72225.3046875, 53896.4453125, 96181.5625, 48040.984375, 132655.859375, 187500.0, -180659.0, 187500.0, -182248.828125, -180802.9375, -181170.875, 187500.0, -0.030000001192092896, 0.9020000696182251, 0.36400002241134644, 192.0, 0.0, 0.0, 0.0, 0.0, 0.0, 0.0, 0.0, 0.0, 0.0, 1.6170057043180416E9, 2021-03-29 11:15:04.318
148.0, 99506.921875, 34415.0234375, 54326.89453125, -2581.291015625, 71158.8515625, 52843.94921875, 95103.984375, 46932.15625, 136742.984375, 187500.0, -178159.359375, 187500.0, -181180.34375, -179648.828125, -180830.875, 187500.0, -0.030000001192092896, 0.9020000696182251, 0.36400002241134644, 192.0, 0.0, 0.0, 0.0, 0.0, 0.0, 0.0, 0.0, 0.0, 0.0, 1.6170057043180463E9, 2021-03-29 11:15:04.318
150.0, 96805.2265625, 35816.25390625, 55755.73046875, -1148.074951171875, 72585.5703125, 54271.84375, 96533.09375, 48408.51171875, 135223.25, 187500.0, -179598.15625, 187500.0, -181658.359375, -180283.46875, -181074.8125, 187500.0, -0.03200000151991844, 0.9100000262260437, 0.3500000238418579, 192.0, 127.5, 0.0, 14.0, 56.0, 5.0, 120.0, 0.0, 0.0, 0.0, 1.6170057043180509E9, 2021-03-29 11:15:04.318
152.0, 100011.625, 34422.578125, 54280.09375, -2617.2998046875, 71139.09375, 52812.9453125, 95050.1640625, 47000.0625, 134021.65625, 187500.0, -180479.4375, 187500.0, -182065.484375, -180647.21875, -181243.859375, 187500.0, -0.03200000151991844, 0.9100000262260437, 0.3500000238418579, 192.0, 0.0, 0.0, 0.0, 0.0, 0.0, 0.0, 0.0, 0.0, 0.0, 1.6170057043180552E9, 2021-03-29 11:15:04.318
154.0, 96934.703125, 35034.390625, 54999.1484375, -1900.5240478515625, 71820.375, 53512.3984375, 95793.203125, 47606.12890625, 138577.90625, 187500.0, -177211.078125, 187500.0, -180984.796875, -179448.5, -180877.8125, 187500.0, -0.03200000151991844, 0.9100000262260437, 0.3500000238418579, 192.0, 0.0, 0.0, 0.0, 0.0, 0.0, 0.0, 0.0, 0.0, 0.0, 1.6170057043180597E9, 2021-03-29 11:15:04.318
156.0, 98074.0234375, 35061.234375, 54942.5546875, -1953.2294921875, 71800.9765625, 53477.015625, 95744.09375, 47681.1875, 133668.921875, 187500.0, -181069.03125, 187500.0, -182376.421875, -181030.578125, -181191.75, 187500.0, -0.03200000151991844, 0.9100000262260437, 0.3500000238418579, 192.0, 0.0, 0.0, 0.0, 0.0, 0.0, 0.0, 0.0, 0.0, 0.0, 1.617005704318064E9, 2021-03-29 11:15:04.318
158.0, 99122.921875, 33883.9921875, 53790.7890625, -3117.35302734375, 70638.3046875, 52314.66015625, 94601.875, 46502.19921875, 137795.34375, 187500.0, -177955.1875, 187500.0, -181470.5, -179876.96875, -180924.609375, 187500.0, -0.03200000151991844, 0.9100000262260437, 0.3500000238418579, 192.0, 0.0, 0.0, 0.0, 0.0, 0.0, 0.0, 0.0, 0.0, 0.0, 1.617005704318069E9, 2021-03-29 11:15:04.318
160.0, 96342.5625, 35342.12890625, 55259.8359375, -1649.7598876953125, 72097.3125, 53784.15234375, 96031.0703125, 47938.5234375, 136409.40625, 187500.0, -179155.9375, 187500.0, -181759.84375, -180523.953125, -180931.046875, 187500.0, -0.03400000184774399, 0.8940000534057617, 0.3620000183582306, 192.0, 127.0, 120.0, 13.5, 120.0, 5.5, 40.0, 0.0, 0.0, 0.0, 1.6170057043180735E9, 2021-03-29 11:15:04.318
162.0, 99613.4296875, 34083.14453125, 53916.1171875, -2999.78271484375, 70776.125, 52464.19140625, 94688.8671875, 46671.84765625, 135016.40625, 187500.0, -180180.515625, 187500.0, -182085.625, -180974.921875, -181048.5625, 187500.0, -0.03400000184774399, 0.8940000534057617, 0.3620000183582306, 192.0, 0.0, 0.0, 0.0, 0.0, 0.0, 0.0, 0.0, 0.0, 0.0, 1.617005704318078E9, 2021-03-29 11:15:04.318
164.0, 96644.515625, 34678.3515625, 54631.953125, -2301.8271484375, 71450.4140625, 53152.78125, 95395.96875, 47248.30078125, 139405.234375, 187500.0, -176882.203125, 187500.0, -180951.640625, -179767.625, -180757.703125, 187500.0, -0.03400000184774399, 0.8940000534057617, 0.3620000183582306, 192.0, 0.0, 0.0, 0.0, 0.0, 0.0, 0.0, 0.0, 0.0, 0.0, 1.6170057043180823E9, 2021-03-29 11:15:04.318
166.0, 97803.2265625, 34913.08984375, 54788.4375, -2140.469970703125, 71638.9453125, 53311.078125, 95558.9140625, 47516.65625, 134127.40625, 187500.0, -180590.0, 187500.0, -182309.84375, -181345.890625, -181233.1875, 187500.0, -0.03400000184774399, 0.8940000534057617, 0.3620000183582306, 192.0, 0.0, 0.0, 0.0, 0.0, 0.0, 0.0, 0.0, 0.0, 0.0, 1.617005704318087E9, 2021-03-29 11:15:04.318
168.0, 99000.34375, 33737.90234375, 53646.0625, -3295.921142578125, 70477.75, 52155.6015625, 94409.65625, 46334.515625, 138143.0, 187500.0, -178236.96875, 187500.0, -181286.09375, -180156.484375, -180923.375, 187500.0, -0.03400000184774399, 0.8940000534057617, 0.3620000183582306, 192.0, 0.0, 0.0, 0.0, 0.0, 0.0, 0.0, 0.0, 0.0, 0.0, 1.6170057043180935E9, 2021-03-29 11:15:04.318
170.0, 96159.3671875, 35161.4609375, 55098.234375, -1840.3531494140625, 71924.5390625, 53604.98046875, 95823.0, 47772.13671875, 136876.984375, 187500.0, -179539.578125, 187500.0, -181666.125, -180701.203125, -180925.96875, 187500.0, -0.046000003814697266, 0.8980000615119934, 0.3540000021457672, 192.0, 127.0, 72.0, 14.0, 8.0, 5.5, 8.0, 0.0, 0.0, 0.0, 1.617005704318098E9, 2021-03-29 11:15:04.318
172.0, 99436.4921875, 33877.91015625, 53728.1171875, -3200.70263671875, 70578.359375, 52258.69140625, 94449.9765625, 46501.26171875, 135307.421875, 187500.0, -180628.515625, 187500.0, -182152.203125, -181165.484375, -181049.859375, 187500.0, -0.046000003814697266, 0.8980000615119934, 0.3540000021457672, 192.0, 0.0, 0.0, 0.0, 0.0, 0.0, 0.0, 0.0, 0.0, 0.0, 1.6170057043181033E9, 2021-03-29 11:15:04.318
174.0, 96522.203125, 34481.02734375, 54431.2578125, -2511.799560546875, 71244.4140625, 52942.7421875, 95155.265625, 47075.07421875, 140008.140625, 187500.0, -177249.125, 187500.0, -181062.734375, -179920.21875, -180744.765625, 187500.0, -0.046000003814697266, 0.8980000615119934, 0.3540000021457672, 192.0, 0.0, 0.0, 0.0, 0.0, 0.0, 0.0, 0.0, 0.0, 0.0, 1.6170057043181076E9, 2021-03-29 11:15:04.318
176.0, 97564.3125, 34642.98828125, 54502.9609375, -2432.718994140625, 71348.9140625, 53042.85546875, 95216.375, 47235.828125, 135053.015625, 187500.0, -181147.09375, 187500.0, -182211.1875, -181545.578125, -181265.015625, 187500.0, -0.046000003814697266, 0.8980000615119934, 0.3540000021457672, 192.0, 0.0, 0.0, 0.0, 0.0, 0.0, 0.0, 0.0, 0.0, 0.0, 1.6170057043181124E9, 2021-03-29 11:15:04.318
178.0, 98780.3359375, 33438.765625, 53326.1640625, -3619.57421875, 70158.8359375, 51857.85546875, 94061.34375, 46051.1640625, 138935.359375, 187500.0, -178138.125, 187500.0, -181296.609375, -180390.0, -181015.0625, 187500.0, -0.046000003814697266, 0.8980000615119934, 0.3540000021457672, 192.0, 0.0, 0.0, 0.0, 0.0, 0.0, 0.0, 0.0, 0.0, 0.0, 1.617005704318117E9, 2021-03-29 11:15:04.318
180.0, 95881.265625, 34896.8828125, 54814.9453125, -2136.468994140625, 71644.78125, 53348.78515625, 95548.8515625, 47534.8515625, 137815.375, 187500.0, -179155.28125, 187500.0, -181667.65625, -180873.1875, -180989.40625, 187500.0, -0.04000000283122063, 0.89000004529953, 0.3660000264644623, 192.0, 127.0, 96.0, 13.5, 104.0, 5.5, 56.0, 0.0, 0.0, 0.0, 1.6170057043181214E9, 2021-03-29 11:15:04.318
182.0, 99113.3984375, 33584.3671875, 53415.86328125, -3533.072998046875, 70277.5234375, 51957.9453125, 94153.0546875, 46220.41015625, 136278.984375, 187500.0, -180361.78125, 187500.0, -182148.453125, -181370.234375, -181135.46875, 187500.0, -0.04000000283122063, 0.89000004529953, 0.3660000264644623, 192.0, 0.0, 0.0, 0.0, 0.0, 0.0, 0.0, 0.0, 0.0, 0.0, 1.617005704318126E9, 2021-03-29 11:15:04.318
184.0, 96210.640625, 34054.0, 53986.4140625, -2970.278564453125, 70815.4453125, 52518.7734375, 94717.5, 46696.234375, 140964.921875, 187500.0, -176982.96875, 187500.0, -180997.09375, -180071.171875, -180769.09375, 187500.0, -0.04000000283122063, 0.89000004529953, 0.3660000264644623, 192.0, 0.0, 0.0, 0.0, 0.0, 0.0, 0.0, 0.0, 0.0, 0.0, 1.6170057043181305E9, 2021-03-29 11:15:04.318
186.0, 97179.8359375, 34301.09765625, 54151.14453125, -2798.035888671875, 71005.4296875, 52698.23828125, 94882.8359375, 46943.17578125, 135868.046875, 187500.0, -180899.515625, 187500.0, -182313.828125, -181701.703125, -181071.8125, 187500.0, -0.04000000283122063, 0.89000004529953, 0.3660000264644623, 192.0, 0.0, 0.0, 0.0, 0.0, 0.0, 0.0, 0.0, 0.0, 0.0, 1.6170057043181348E9, 2021-03-29 11:15:04.318
188.0, 98520.6484375, 33129.5546875, 53004.0546875, -3946.580322265625, 69837.9140625, 51541.06640625, 93742.9921875, 45744.5859375, 139671.515625, 187500.0, -178025.453125, 187500.0, -181400.46875, -180575.796875, -180808.5, 187500.0, -0.04000000283122063, 0.89000004529953, 0.3660000264644623, 192.0, 0.0, 0.0, 0.0, 0.0, 0.0, 0.0, 0.0, 0.0, 0.0, 1.6170057043181393E9, 2021-03-29 11:15:04.318
190.0, 95572.4375, 34589.7265625, 54496.9921875, -2451.85205078125, 71319.4296875, 53024.68359375, 95204.34375, 47241.4375, 138674.4375, 187500.0, -178984.25, 187500.0, -181638.859375, -181015.34375, -180972.4375, 187500.0, -0.04200000315904617, 0.89000004529953, 0.36000001430511475, 192.0, 127.0, 88.0, 13.5, 104.0, 5.5, 32.0, 0.0, 0.0, 0.0, 1.617005704596357E9, 2021-03-29 11:15:04.596
192.0, 98814.9375, 33345.89453125, 53168.44921875, -3781.870361328125, 70002.7109375, 51698.109375, 93834.03125, 45965.0625, 136913.546875, 187500.0, -180349.734375, 187500.0, -182132.171875, -181569.9375, -181189.203125, 187500.0, -0.04200000315904617, 0.89000004529953, 0.36000001430511475, 192.0, 0.0, 0.0, 0.0, 0.0, 0.0, 0.0, 0.0, 0.0, 0.0, 1.617005704596386E9, 2021-03-29 11:15:04.596
194.0, 96062.8125, 33929.7890625, 53870.609375, -3095.6494140625, 70666.21875, 52368.234375, 94543.5859375, 46546.7890625, 141667.140625, 187500.0, -176964.09375, 187500.0, -180960.140625, -180240.59375, -180812.578125, 187500.0, -0.04200000315904617, 0.89000004529953, 0.36000001430511475, 192.0, 0.0, 0.0, 0.0, 0.0, 0.0, 0.0, 0.0, 0.0, 0.0, 1.617005704596424E9, 2021-03-29 11:15:04.596
196.0, 96938.3984375, 34103.5078125, 53971.68359375, -2998.7099609375, 70788.109375, 52474.5390625, 94620.25, 46736.71484375, 136625.28125, 187500.0, -180919.8125, 187500.0, -182296.421875, -181907.25, -181119.796875, 187500.0, -0.04200000315904617, 0.89000004529953, 0.36000001430511475, 192.0, 0.0, 0.0, 0.0, 0.0, 0.0, 0.0, 0.0, 0.0, 0.0, 1.61700570459644E9, 2021-03-29 11:15:04.596
198.0, 98309.5625, 32801.609375, 52686.9921875, -4296.02734375, 69494.5, 51185.94140625, 93346.1328125, 45424.15234375, 140352.609375, 187500.0, -178088.5, 187500.0, -181461.421875, -180793.625, -180875.734375, 187500.0, -0.04200000315904617, 0.89000004529953, 0.36000001430511475, 192.0, 0.0, 0.0, 0.0, 0.0, 0.0, 0.0, 0.0, 0.0, 0.0, 1.617005704596445E9, 2021-03-29 11:15:04.596
200.0, 95306.8984375, 34274.03125, 54184.94140625, -2804.87548828125, 70985.046875, 52683.6640625, 94847.3671875, 46914.140625, 139505.40625, 187500.0, -178926.421875, 187500.0, -181625.828125, -181228.609375, -180855.40625, 187500.0, -0.036000002175569534, 0.9000000357627869, 0.3620000183582306, 192.0, 127.0, 112.0, 14.0, 16.0, 5.5, 40.0, 0.0, 0.0, 0.0, 1.6170057045964499E9, 2021-03-29 11:15:04.596
202.0, 98551.046875, 33061.515625, 52876.11328125, -4116.095703125, 69703.640625, 51398.66015625, 93514.5546875, 45677.12890625, 137657.65625, 187500.0, -180302.703125, 187500.0, -182074.484375, -181854.640625, -181021.3125, 187500.0, -0.036000002175569534, 0.9000000357627869, 0.3620000183582306, 192.0, 0.0, 0.0, 0.0, 0.0, 0.0, 0.0, 0.0, 0.0, 0.0, 1.6170057045964592E9, 2021-03-29 11:15:04.596
204.0, 95835.78125, 33510.1796875, 53438.5703125, -3574.8037109375, 70233.359375, 51936.69140625, 94119.1015625, 46147.4765625, 142449.25, 187500.0, -176799.4375, 187500.0, -180895.59375, -180407.3125, -180682.125, 187500.0, -0.036000002175569534, 0.9000000357627869, 0.3620000183582306, 192.0, 0.0, 0.0, 0.0, 0.0, 0.0, 0.0, 0.0, 0.0, 0.0, 1.6170057045964649E9, 2021-03-29 11:15:04.596
206.0, 96643.6875, 33823.5078125, 53660.234375, -3345.51953125, 70489.484375, 52186.046875, 94306.765625, 46475.890625, 137380.515625, 187500.0, -180655.671875, 187500.0, -182224.28125, -182043.171875, -181149.375, 187500.0, -0.036000002175569534, 0.9000000357627869, 0.3620000183582306, 192.0, 0.0, 0.0, 0.0, 0.0, 0.0, 0.0, 0.0, 0.0, 0.0, 1.6170057045964692E9, 2021-03-29 11:15:04.596
208.0, 98136.25, 32589.916015625, 52446.109375, -4573.25634765625, 69263.1328125, 50963.921875, 93118.5234375, 45238.3203125, 140963.375, 187500.0, -177973.328125, 187500.0, -181340.34375, -180912.3125, -180910.609375, 187500.0, -0.036000002175569534, 0.9000000357627869, 0.3620000183582306, 192.0, 0.0, 0.0, 0.0, 0.0, 0.0, 0.0, 0.0, 0.0, 0.0, 1.6170057045964737E9, 2021-03-29 11:15:04.596
210.0, 95071.4453125, 34049.08203125, 53948.05859375, -3079.422119140625, 70750.625, 52452.74609375, 94621.34375, 46708.328125, 140208.421875, 187500.0, -178638.21875, 187500.0, -181549.328125, -181233.796875, -180866.625, 187500.0, -0.03800000250339508, 0.8880000710487366, 0.34800001978874207, 192.0, 127.0, 104.0, 13.5, 96.0, 5.0, 112.0, 0.0, 0.0, 0.0, 1.6170057045964785E9, 2021-03-29 11:15:04.596
212.0, 98279.7421875, 32825.99609375, 52628.5, -4401.93017578125, 69459.0234375, 51150.55859375, 93265.2421875, 45492.5703125, 138228.53125, 187500.0, -180263.796875, 187500.0, -182097.21875, -181882.796875, -181018.453125, 187500.0, -0.03800000250339508, 0.8880000710487366, 0.34800001978874207, 192.0, 0.0, 0.0, 0.0, 0.0, 0.0, 0.0, 0.0, 0.0, 0.0, 1.6170057045964828E9, 2021-03-29 11:15:04.596
214.0, 95625.6328125, 33258.87890625, 53171.46875, -3881.402587890625, 69960.8046875, 51666.43359375, 93807.4296875, 45909.4765625, 143086.25, 187500.0, -176774.84375, 187500.0, -180899.703125, -180409.96875, -180651.421875, 187500.0, -0.03800000250339508, 0.8880000710487366, 0.34800001978874207, 192.0, 0.0, 0.0, 0.0, 0.0, 0.0, 0.0, 0.0, 0.0, 0.0, 1.6170057045964873E9, 2021-03-29 11:15:04.596
216.0, 96384.6328125, 33584.546875, 53421.49609375, -3632.560791015625, 70240.6484375, 51942.2109375, 94041.7421875, 46241.98046875, 138070.921875, 187500.0, -180685.890625, 187500.0, -182216.640625, -182065.96875, -181088.3125, 187500.0, -0.03800000250339508, 0.8880000710487366, 0.34800001978874207, 192.0, 0.0, 0.0, 0.0, 0.0, 0.0, 0.0, 0.0, 0.0, 0.0, 1.6170057045964916E9, 2021-03-29 11:15:04.596
218.0, 97925.2890625, 32279.13671875, 52128.01953125, -4938.70703125, 68940.1953125, 50636.64453125, 92739.171875, 44923.02734375, 141617.5, 187500.0, -178069.09375, 187500.0, -181383.265625, -180955.625, -180856.578125, 187500.0, -0.03800000250339508, 0.8880000710487366, 0.34800001978874207, 192.0, 0.0, 0.0, 0.0, 0.0, 0.0, 0.0, 0.0, 0.0, 0.0, 1.617005704596496E9, 2021-03-29 11:15:04.596
220.0, 94810.6875, 33749.9921875, 53650.12890625, -3427.058837890625, 70447.8046875, 52145.1875, 94266.0234375, 46411.5390625, 141087.25, 187500.0, -178711.171875, 187500.0, -181542.375, -181219.25, -180797.6875, 187500.0, -0.04400000348687172, 0.8940000534057617, 0.34800001978874207, 192.0, 127.0, 80.0, 13.5, 120.0, 5.0, 112.0, 0.0, 0.0, 0.0, 1.6170057045965009E9, 2021-03-29 11:15:04.596
222.0, 97981.4609375, 32534.19140625, 52349.28125, -4728.33251953125, 69172.7890625, 50865.7734375, 92935.171875, 45204.12109375, 139067.234375, 187500.0, -180354.359375, 187500.0, -182129.46875, -181908.40625, -180968.875, 187500.0, -0.04400000348687172, 0.8940000534057617, 0.34800001978874207, 192.0, 0.0, 0.0, 0.0, 0.0, 0.0, 0.0, 0.0, 0.0, 0.0, 1.6170057045965052E9, 2021-03-29 11:15:04.596
224.0, 95388.859375, 32919.15625, 52843.6328125, -4236.77294921875, 69627.875, 51334.78125, 93439.0078125, 45583.65234375, 144045.28125, 187500.0, -176807.796875, 187500.0, -180969.078125, -180402.15625, -180651.859375, 187500.0, -0.04400000348687172, 0.8940000534057617, 0.34800001978874207, 192.0, 0.0, 0.0, 0.0, 0.0, 0.0, 0.0, 0.0, 0.0, 0.0, 1.6170057045965097E9, 2021-03-29 11:15:04.596
226.0, 96085.09375, 33318.9609375, 53168.71875, -3903.6650390625, 69978.6171875, 51673.65625, 93725.015625, 45955.8984375, 139102.703125, 187500.0, -180730.203125, 187500.0, -182089.0, -182076.234375, -181152.921875, 187500.0, -0.04400000348687172, 0.8940000534057617, 0.34800001978874207, 192.0, 0.0, 0.0, 0.0, 0.0, 0.0, 0.0, 0.0, 0.0, 0.0, 1.617005704596514E9, 2021-03-29 11:15:04.596
228.0, 97714.8046875, 31948.7109375, 51809.21875, -5270.0048828125, 68612.9921875, 50312.72265625, 92404.5703125, 44652.45703125, 142591.78125, 187500.0, -178133.3125, 187500.0, -181264.375, -180995.21875, -180929.546875, 187500.0, -0.04400000348687172, 0.8940000534057617, 0.34800001978874207, 192.0, 0.0, 0.0, 0.0, 0.0, 0.0, 0.0, 0.0, 0.0, 0.0, 1.6170057045965185E9, 2021-03-29 11:15:04.596
230.0, 94550.1796875, 33412.94921875, 53314.296875, -3767.43115234375, 70113.21875, 51816.73046875, 93931.59375, 46137.57421875, 142195.328125, 187500.0, -178634.671875, 187500.0, -181452.578125, -181190.71875, -180873.109375, 187500.0, -0.04200000315904617, 0.9120000600814819, 0.3620000183582306, 192.0, 127.0, 88.0, 14.0, 64.0, 5.5, 40.0, 0.0, 0.0, 0.0, 1.6170057045965228E9, 2021-03-29 11:15:04.596
232.0, 97714.7578125, 32229.359375, 52029.5390625, -5046.8896484375, 68870.4375, 50554.01171875, 92611.546875, 44916.23046875, 140004.03125, 187500.0, -180331.984375, 187500.0, -182073.578125, -181934.1875, -181062.046875, 187500.0, -0.04200000315904617, 0.9120000600814819, 0.3620000183582306, 192.0, 0.0, 0.0, 0.0, 0.0, 0.0, 0.0, 0.0, 0.0, 0.0, 1.617005704596527E9, 2021-03-29 11:15:04.596
