%OpenBCI Raw EEG Data
%Number of channels = 16
%Sample Rate = 125 Hz
%Board = OpenBCI_GUI$BoardCytonSerialDaisy
Sample Index, EXG Channel 0, EXG Channel 1, EXG Channel 2, EXG Channel 3, EXG Channel 4, EXG Channel 5, EXG Channel 6, EXG Channel 7, EXG Channel 8, EXG Channel 9, EXG Channel 10, EXG Channel 11, EXG Channel 12, EXG Channel 13, EXG Channel 14, EXG Channel 15, Accel Channel 0, Accel Channel 1, Accel Channel 2, Other, Other, Other, Other, Other, Other, Other, Analog Channel 0, Analog Channel 1, Analog Channel 2, Timestamp, Timestamp (Formatted)
0.0, -24105.283203125, -1809.2171630859375, 93749.984375, -31927.6328125, -6241.724609375, -14966.2353515625, 3019.67578125, -1977.12353515625, -93750.0078125, -93750.0078125, -93750.0078125, -93750.0078125, -93750.0078125, -93750.0078125, -69144.6015625, -93750.0078125, -0.4360000193119049, 0.7760000228881836, 0.38200002908706665, 192.0, 121.0, 48.0, 12.0, 32.0, 5.5, 120.0, 0.0, 0.0, 0.0, 1.6170038951985383E9, 2021-03-29 10:44:55.198
2.0, -45652.7421875, -3722.5263671875, 187500.0, -64012.578125, -12633.541015625, -30097.248046875, 5865.0751953125, -4112.00537109375, -187500.015625, -187500.015625, -187500.015625, -187500.015625, -187500.015625, -187500.015625, -130323.8046875, -187500.015625, -0.4360000193119049, 0.7760000228881836, 0.38200002908706665, 192.0, 0.0, 0.0, 0.0, 0.0, 0.0, 0.0, 0.0, 0.0, 0.0, 1.6170038951986406E9, 2021-03-29 10:44:55.198
4.0, -44129.33984375, -3715.977294921875, 187500.0, -63916.53125, -12572.8779296875, -30003.4375, 5964.048828125, -4027.09130859375, -187500.015625, -187500.015625, -187500.015625, -187500.015625, -187500.015625, -187500.015625, -130304.765625, -187500.015625, -0.4360000193119049, 0.7760000228881836, 0.38200002908706665, 192.0, 0.0, 0.0, 0.0, 0.0, 0.0, 0.0, 0.0, 0.0, 0.0, 1.6170038951986446E9, 2021-03-29 10:44:55.198
6.0, -46009.96875, -3633.67822265625, 187500.0, -63895.5, -12534.9697265625, -29979.857421875, 5984.34423828125, -4002.459716796875, -187500.015625, -187500.015625, -187500.015625, -187500.015625, -187500.015625, -187500.015625, -130288.1796875, -187500.015625, -0.4360000193119049, 0.7760000228881836, 0.38200002908706665, 192.0, 0.0, 0.0, 0.0, 0.0, 0.0, 0.0, 0.0, 0.0, 0.0, 1.6170038951986485E9, 2021-03-29 10:44:55.198
8.0, -42107.15234375, -3729.410888671875, 187500.0, -64019.57421875, -12653.8134765625, -30104.400390625, 5847.4619140625, -4136.1005859375, -187500.015625, -187500.015625, -187500.015625, -187500.015625, -187500.015625, -187500.015625, -130278.078125, -187500.015625, -0.41600000858306885, 0.796000063419342, 0.3580000102519989, 192.0, 121.5, 0.0, 12.0, 112.0, 5.5, 24.0, 0.0, 0.0, 0.0, 1.6170038951986525E9, 2021-03-29 10:44:55.198
10.0, -44792.06640625, -3597.848388671875, 187500.0, -63815.45703125, -12469.7021484375, -29900.955078125, 6061.3681640625, -3925.301513671875, -187500.015625, -187500.015625, -187500.015625, -187500.015625, -187500.015625, -187500.015625, -130266.8359375, -187500.015625, -0.41600000858306885, 0.796000063419342, 0.3580000102519989, 192.0, 0.0, 0.0, 0.0, 0.0, 0.0, 0.0, 0.0, 0.0, 0.0, 1.6170038951986563E9, 2021-03-29 10:44:55.198
12.0, -43103.39453125, -3676.48193359375, 187500.0, -63997.890625, -12627.3046875, -30086.140625, 5870.52880859375, -4112.40771484375, -187500.015625, -187500.015625, -187500.015625, -187500.015625, -187500.015625, -187500.015625, -130260.7578125, -187500.015625, -0.41600000858306885, 0.796000063419342, 0.3580000102519989, 192.0, 0.0, 0.0, 0.0, 0.0, 0.0, 0.0, 0.0, 0.0, 0.0, 1.6170038951986606E9, 2021-03-29 10:44:55.198
14.0, -41810.0078125, -3680.907470703125, 187500.0, -63903.14453125, -12561.1884765625, -29992.486328125, 5962.90869140625, -4021.1904296875, -187500.015625, -187500.015625, -187500.015625, -187500.015625, -187500.015625, -187500.015625, -130250.3359375, -187500.015625, -0.41600000858306885, 0.796000063419342, 0.3580000102519989, 192.0, 0.0, 0.0, 0.0, 0.0, 0.0, 0.0, 0.0, 0.0, 0.0, 1.6170038951986647E9, 2021-03-29 10:44:55.198
16.0, -43930.80859375, -3598.89892578125, 187500.0, -63870.95703125, -12510.29296875, -29965.1953125, 6002.09130859375, -3989.9873046875, -187500.015625, -187500.015625, -187500.015625, -187500.015625, -187500.015625, -187500.015625, -130239.6953125, -187500.015625, -0.41600000858306885, 0.796000063419342, 0.3580000102519989, 192.0, 0.0, 0.0, 0.0, 0.0, 0.0, 0.0, 0.0, 0.0, 0.0, 1.6170038951986687E9, 2021-03-29 10:44:55.198
18.0, -40443.8046875, -3704.9580078125, 187500.0, -63999.01171875, -12649.7236328125, -30097.96484375, 5851.95458984375, -4129.39501953125, -187500.015625, -187500.015625, -187500.015625, -187500.015625, -187500.015625, -187500.015625, -130234.6015625, -187500.015625, -0.40800002217292786, 0.8040000200271606, 0.3540000021457672, 192.0, 121.5, 32.0, 12.5, 16.0, 5.5, 8.0, 0.0, 0.0, 0.0, 1.6170038951986725E9, 2021-03-29 10:44:55.198
20.0, -43306.390625, -3588.281982421875, 187500.0, -63798.671875, -12472.8095703125, -29894.96484375, 6052.27099609375, -3933.4150390625, -187500.015625, -187500.015625, -187500.015625, -187500.015625, -187500.015625, -187500.015625, -130228.4140625, -187500.015625, -0.40800002217292786, 0.8040000200271606, 0.3540000021457672, 192.0, 0.0, 0.0, 0.0, 0.0, 0.0, 0.0, 0.0, 0.0, 0.0, 1.6170038951986766E9, 2021-03-29 10:44:55.198
22.0, -43030.01171875, -3621.98828125, 187500.0, -63882.82421875, -12550.392578125, -29980.326171875, 5962.10400390625, -4024.29736328125, -187500.015625, -187500.015625, -187500.015625, -187500.015625, -187500.015625, -187500.015625, -130228.5703125, -187500.015625, -0.40800002217292786, 0.8040000200271606, 0.3540000021457672, 192.0, 0.0, 0.0, 0.0, 0.0, 0.0, 0.0, 0.0, 0.0, 0.0, 1.6170038951986806E9, 2021-03-29 10:44:55.198
24.0, -42549.80859375, -3612.533447265625, 187500.0, -63863.37890625, -12537.1376953125, -29960.142578125, 5971.8046875, -4006.48291015625, -187500.015625, -187500.015625, -187500.015625, -187500.015625, -187500.015625, -187500.015625, -130234.7578125, -187500.015625, -0.40800002217292786, 0.8040000200271606, 0.3540000021457672, 192.0, 0.0, 0.0, 0.0, 0.0, 0.0, 0.0, 0.0, 0.0, 0.0, 1.6170038951986847E9, 2021-03-29 10:44:55.198
26.0, -43018.65625, -3608.71142578125, 187500.0, -63863.87109375, -12537.607421875, -29964.880859375, 5979.73974609375, -4012.67431640625, -187500.015625, -187500.015625, -187500.015625, -187500.015625, -187500.015625, -187500.015625, -130225.6171875, -187500.015625, -0.40800002217292786, 0.8040000200271606, 0.3540000021457672, 192.0, 0.0, 0.0, 0.0, 0.0, 0.0, 0.0, 0.0, 0.0, 0.0, 1.6170038951986885E9, 2021-03-29 10:44:55.198
28.0, -42019.33203125, -3614.545166015625, 187500.0, -63870.578125, -12550.4150390625, -29973.80078125, 5960.181640625, -4027.963134765625, -187500.015625, -187500.015625, -187500.015625, -187500.015625, -187500.015625, -187500.015625, -130230.21875, -187500.015625, -0.4020000100135803, 0.8080000281333923, 0.33800002932548523, 192.0, 121.5, 56.0, 12.5, 32.0, 5.0, 72.0, 0.0, 0.0, 0.0, 1.6170038951986926E9, 2021-03-29 10:44:55.198
30.0, -42542.921875, -3584.370361328125, 187500.0, -63841.02734375, -12531.68359375, -29948.408203125, 5991.6533203125, -3999.50927734375, -187500.015625, -187500.015625, -187500.015625, -187500.015625, -187500.015625, -187500.015625, -130230.625, -187500.015625, -0.4020000100135803, 0.8080000281333923, 0.33800002932548523, 192.0, 0.0, 0.0, 0.0, 0.0, 0.0, 0.0, 0.0, 0.0, 0.0, 1.6170038951986966E9, 2021-03-29 10:44:55.198
32.0, -41978.65234375, -3611.929931640625, 187500.0, -63880.09765625, -12573.146484375, -29992.708984375, 5943.90966796875, -4045.710205078125, -187500.015625, -187500.015625, -187500.015625, -187500.015625, -187500.015625, -187500.015625, -130221.5234375, -187500.015625, -0.4020000100135803, 0.8080000281333923, 0.33800002932548523, 192.0, 0.0, 0.0, 0.0, 0.0, 0.0, 0.0, 0.0, 0.0, 0.0, 1.6170038951987007E9, 2021-03-29 10:44:55.198
34.0, -41581.86328125, -3578.558837890625, 187500.0, -63843.75390625, -12547.3974609375, -29959.44921875, 5971.8046875, -4000.49267578125, -187500.015625, -187500.015625, -187500.015625, -187500.015625, -187500.015625, -187500.015625, -130226.8046875, -187500.015625, -0.4020000100135803, 0.8080000281333923, 0.33800002932548523, 192.0, 0.0, 0.0, 0.0, 0.0, 0.0, 0.0, 0.0, 0.0, 0.0, 1.617003895198708E9, 2021-03-29 10:44:55.198
36.0, -42046.9609375, -3569.349853515625, 187500.0, -63837.85546875, -12543.26171875, -29955.3828125, 5989.9765625, -4000.1796875, -187500.015625, -187500.015625, -187500.015625, -187500.015625, -187500.015625, -187500.015625, -130216.6796875, -187500.015625, -0.4020000100135803, 0.8080000281333923, 0.33800002932548523, 192.0, 0.0, 0.0, 0.0, 0.0, 0.0, 0.0, 0.0, 0.0, 0.0, 1.617003895198712E9, 2021-03-29 10:44:55.198
38.0, -41163.41796875, -3599.547119140625, 187500.0, -63861.2578125, -12565.7255859375, -29979.052734375, 5945.876953125, -4031.8076171875, -187500.015625, -187500.015625, -187500.015625, -187500.015625, -187500.015625, -187500.015625, -130219.1796875, -187500.015625, -0.3880000114440918, 0.812000036239624, 0.3460000157356262, 192.0, 121.5, 112.0, 12.5, 48.0, 5.0, 104.0, 0.0, 0.0, 0.0, 1.6170038951987157E9, 2021-03-29 10:44:55.198
40.0, -41779.58984375, -3564.09716796875, 187500.0, -63816.953125, -12527.794921875, -29934.841796875, 5998.984375, -3991.082763671875, -187500.015625, -187500.015625, -187500.015625, -187500.015625, -187500.015625, -187500.015625, -130221.953125, -187500.015625, -0.3880000114440918, 0.812000036239624, 0.3460000157356262, 192.0, 0.0, 0.0, 0.0, 0.0, 0.0, 0.0, 0.0, 0.0, 0.0, 1.6170038951987197E9, 2021-03-29 10:44:55.198
42.0, -41449.5, -3579.564697265625, 187500.0, -63830.9453125, -12543.6640625, -29953.705078125, 5968.2060546875, -4011.9814453125, -187500.015625, -187500.015625, -187500.015625, -187500.015625, -187500.015625, -187500.015625, -130217.7265625, -187500.015625, -0.3880000114440918, 0.812000036239624, 0.3460000157356262, 192.0, 0.0, 0.0, 0.0, 0.0, 0.0, 0.0, 0.0, 0.0, 0.0, 1.6170038951987236E9, 2021-03-29 10:44:55.198
44.0, -41141.04296875, -3574.870849609375, 187500.0, -63819.83984375, -12535.0810546875, -29940.98828125, 5985.86376953125, -3997.92236328125, -187500.015625, -187500.015625, -187500.015625, -187500.015625, -187500.015625, -187500.015625, -130228.2578125, -187500.015625, -0.3880000114440918, 0.812000036239624, 0.3460000157356262, 192.0, 0.0, 0.0, 0.0, 0.0, 0.0, 0.0, 0.0, 0.0, 0.0, 1.6170038951987276E9, 2021-03-29 10:44:55.198
46.0, -41689.1328125, -3563.896240234375, 187500.0, -63808.3046875, -12521.669921875, -29928.560546875, 5995.85546875, -3990.143798828125, -187500.015625, -187500.015625, -187500.015625, -187500.015625, -187500.015625, -187500.015625, -130223.625, -187500.015625, -0.3880000114440918, 0.812000036239624, 0.3460000157356262, 192.0, 0.0, 0.0, 0.0, 0.0, 0.0, 0.0, 0.0, 0.0, 0.0, 1.6170038951987317E9, 2021-03-29 10:44:55.198
48.0, -40952.9765625, -3589.220703125, 187500.0, -63828.9375, -12543.1728515625, -29952.140625, 5978.443359375, -4012.071044921875, -187500.015625, -187500.015625, -187500.015625, -187500.015625, -187500.015625, -187500.015625, -130233.4140625, -187500.015625, -0.3880000114440918, 0.8160000443458557, 0.34200000762939453, 192.0, 121.5, 112.0, 12.5, 64.0, 5.0, 88.0, 0.0, 0.0, 0.0, 1.6170038951987357E9, 2021-03-29 10:44:55.198
50.0, -41754.5546875, -3545.880615234375, 187500.0, -63782.2890625, -12498.4912109375, -29905.134765625, 6031.6181640625, -3964.171142578125, -187500.015625, -187500.015625, -187500.015625, -187500.015625, -187500.015625, -187500.015625, -130239.8125, -187500.015625, -0.3880000114440918, 0.8160000443458557, 0.34200000762939453, 192.0, 0.0, 0.0, 0.0, 0.0, 0.0, 0.0, 0.0, 0.0, 0.0, 1.6170038951987393E9, 2021-03-29 10:44:55.198
52.0, -41765.953125, -3572.12158203125, 187500.0, -63802.9609375, -12515.9931640625, -29928.380859375, 6001.28662109375, -3987.484130859375, -187500.015625, -187500.015625, -187500.015625, -187500.015625, -187500.015625, -187500.015625, -130243.7890625, -187500.015625, -0.3880000114440918, 0.8160000443458557, 0.34200000762939453, 192.0, 0.0, 0.0, 0.0, 0.0, 0.0, 0.0, 0.0, 0.0, 0.0, 1.6170038951987433E9, 2021-03-29 10:44:55.198
54.0, -41913.8125, -3575.69775390625, 187500.0, -63786.98046875, -12501.330078125, -29917.65234375, 6028.48876953125, -3973.871826171875, -187500.015625, -187500.015625, -187500.015625, -187500.015625, -187500.015625, -187500.015625, -130258.984375, -187500.015625, -0.3880000114440918, 0.8160000443458557, 0.34200000762939453, 192.0, 0.0, 0.0, 0.0, 0.0, 0.0, 0.0, 0.0, 0.0, 0.0, 1.6170038951987472E9, 2021-03-29 10:44:55.198
56.0, -43012.48828125, -3557.682373046875, 187500.0, -63758.4609375, -12476.0947265625, -29893.2890625, 6055.7353515625, -3947.273193359375, -187500.015625, -187500.015625, -187500.015625, -187500.015625, -187500.015625, -187500.015625, -130258.765625, -187500.015625, -0.3880000114440918, 0.8160000443458557, 0.34200000762939453, 192.0, 0.0, 0.0, 0.0, 0.0, 0.0, 0.0, 0.0, 0.0, 0.0, 1.6170038951987512E9, 2021-03-29 10:44:55.198
58.0, -42832.53515625, -3576.681396484375, 187500.0, -63767.89453125, -12487.5166015625, -29908.95703125, 6036.1552734375, -3975.458740234375, -187500.015625, -187500.015625, -187500.015625, -187500.015625, -187500.015625, -187500.015625, -130275.8671875, -187500.015625, -0.39400002360343933, 0.8200000524520874, 0.3500000238418579, 192.0, 121.5, 88.0, 12.5, 80.0, 5.0, 120.0, 0.0, 0.0, 0.0, 1.6170038951987553E9, 2021-03-29 10:44:55.198
60.0, -44014.875, -3560.453857421875, 187500.0, -63738.34375, -12456.873046875, -29877.375, 6069.5263671875, -3929.883544921875, -187500.015625, -187500.015625, -187500.015625, -187500.015625, -187500.015625, -187500.015625, -130290.3046875, -187500.015625, -0.39400002360343933, 0.8200000524520874, 0.3500000238418579, 192.0, 0.0, 0.0, 0.0, 0.0, 0.0, 0.0, 0.0, 0.0, 0.0, 1.6170038951987593E9, 2021-03-29 10:44:55.198
62.0, -44292.86328125, -3578.268310546875, 187500.0, -63751.15234375, -12472.33984375, -29888.751953125, 6054.84130859375, -3943.786376953125, -187500.015625, -187500.015625, -187500.015625, -187500.015625, -187500.015625, -187500.015625, -130299.7109375, -187500.015625, -0.39400002360343933, 0.8200000524520874, 0.3500000238418579, 192.0, 0.0, 0.0, 0.0, 0.0, 0.0, 0.0, 0.0, 0.0, 0.0, 1.6170038951987631E9, 2021-03-29 10:44:55.198
64.0, -44452.296875, -3581.866943359375, 187500.0, -63746.03125, -12464.5390625, -29881.017578125, 6059.87060546875, -3941.081787109375, -187500.015625, -187500.015625, -187500.015625, -187500.015625, -187500.015625, -187500.015625, -130321.1484375, -187500.015625, -0.39400002360343933, 0.8200000524520874, 0.3500000238418579, 192.0, 0.0, 0.0, 0.0, 0.0, 0.0, 0.0, 0.0, 0.0, 0.0, 1.6170038951987672E9, 2021-03-29 10:44:55.198
66.0, -45448.0234375, -3560.31982421875, 187500.0, -63725.78125, -12452.6923828125, -29863.0703125, 6072.49951171875, -3924.83203125, -187500.015625, -187500.015625, -187500.015625, -187500.015625, -187500.015625, -187500.015625, -130327.4765625, -187500.015625, -0.39400002360343933, 0.8200000524520874, 0.3500000238418579, 192.0, 0.0, 0.0, 0.0, 0.0, 0.0, 0.0, 0.0, 0.0, 0.0, 1.6170038951987708E9, 2021-03-29 10:44:55.198
68.0, -45088.25, -3591.6123046875, 187500.0, -63752.5390625, -12479.9169921875, -29891.859375, 6049.92431640625, -3955.990478515625, -187500.015625, -187500.015625, -187500.015625, -187500.015625, -187500.015625, -187500.015625, -130348.125, -187500.015625, -0.3960000276565552, 0.8140000104904175, 0.33800002932548523, 192.0, 121.5, 80.0, 12.5, 56.0, 5.0, 72.0, 0.0, 0.0, 0.0, 1.617003895198776E9, 2021-03-29 10:44:55.198
70.0, -46066.40625, -3572.591064453125, 187500.0, -63719.1875, -12443.70703125, -29855.134765625, 6085.1728515625, -3919.802978515625, -187500.015625, -187500.015625, -187500.015625, -187500.015625, -187500.015625, -187500.015625, -130364.3984375, -187500.015625, -0.3960000276565552, 0.8140000104904175, 0.33800002932548523, 192.0, 0.0, 0.0, 0.0, 0.0, 0.0, 0.0, 0.0, 0.0, 0.0, 1.6170038951987805E9, 2021-03-29 10:44:55.198
72.0, -46246.7421875, -3607.727783203125, 187500.0, -63746.27734375, -12468.40625, -29879.7890625, 6068.83349609375, -3949.10595703125, -187500.015625, -187500.015625, -187500.015625, -187500.015625, -187500.015625, -187500.015625, -130375.328125, -187500.015625, -0.3960000276565552, 0.8140000104904175, 0.33800002932548523, 192.0, 0.0, 0.0, 0.0, 0.0, 0.0, 0.0, 0.0, 0.0, 0.0, 1.6170038951987848E9, 2021-03-29 10:44:55.198
74.0, -46383.19921875, -3602.408203125, 187500.0, -63720.640625, -12446.3896484375, -29856.609375, 6090.49267578125, -3927.24609375, -187500.015625, -187500.015625, -187500.015625, -187500.015625, -187500.015625, -187500.015625, -130399.734375, -187500.015625, -0.3960000276565552, 0.8140000104904175, 0.33800002932548523, 192.0, 0.0, 0.0, 0.0, 0.0, 0.0, 0.0, 0.0, 0.0, 0.0, 1.617003895198789E9, 2021-03-29 10:44:55.198
76.0, -47324.8984375, -3602.430419921875, 187500.0, -63712.640625, -12442.7236328125, -29847.982421875, 6095.85693359375, -3917.880615234375, -187500.015625, -187500.015625, -187500.015625, -187500.015625, -187500.015625, -187500.015625, -130408.25, -187500.015625, -0.3960000276565552, 0.8140000104904175, 0.33800002932548523, 192.0, 0.0, 0.0, 0.0, 0.0, 0.0, 0.0, 0.0, 0.0, 0.0, 1.617003895198793E9, 2021-03-29 10:44:55.198
78.0, -46940.5390625, -3636.9638671875, 187500.0, -63743.41796875, -12469.880859375, -29880.68359375, 6059.66943359375, -3950.8046875, -187500.015625, -187500.015625, -187500.015625, -187500.015625, -187500.015625, -187500.015625, -130428.3671875, -187500.015625, -0.4000000059604645, 0.8140000104904175, 0.3360000252723694, 192.0, 121.5, 64.0, 12.5, 56.0, 5.0, 64.0, 0.0, 0.0, 0.0, 1.6170038951987967E9, 2021-03-29 10:44:55.198
80.0, -47827.390625, -3607.660888671875, 187500.0, -63706.4921875, -12429.603515625, -29837.767578125, 6112.82177734375, -3908.26953125, -187500.015625, -187500.015625, -187500.015625, -187500.015625, -187500.015625, -187500.015625, -130447.5703125, -187500.015625, -0.4000000059604645, 0.8140000104904175, 0.3360000252723694, 192.0, 0.0, 0.0, 0.0, 0.0, 0.0, 0.0, 0.0, 0.0, 0.0, 1.6170038951988008E9, 2021-03-29 10:44:55.198
82.0, -47846.25390625, -3631.06298828125, 187500.0, -63732.578125, -12453.408203125, -29861.146484375, 6088.3916015625, -3935.695068359375, -187500.015625, -187500.015625, -187500.015625, -187500.015625, -187500.015625, -187500.015625, -130457.3828125, -187500.015625, -0.4000000059604645, 0.8140000104904175, 0.3360000252723694, 192.0, 0.0, 0.0, 0.0, 0.0, 0.0, 0.0, 0.0, 0.0, 0.0, 1.6170038951988049E9, 2021-03-29 10:44:55.198
84.0, -47593.87890625, -3634.169921875, 187500.0, -63732.66796875, -12454.4365234375, -29862.509765625, 6085.1279296875, -3937.594970703125, -187500.015625, -187500.015625, -187500.015625, -187500.015625, -187500.015625, -187500.015625, -130478.015625, -187500.015625, -0.4000000059604645, 0.8140000104904175, 0.3360000252723694, 192.0, 0.0, 0.0, 0.0, 0.0, 0.0, 0.0, 0.0, 0.0, 0.0, 1.617003895198809E9, 2021-03-29 10:44:55.198
86.0, -47970.3046875, -3626.838623046875, 187500.0, -63738.76953125, -12461.7900390625, -29867.181640625, 6075.0029296875, -3940.478271484375, -187500.015625, -187500.015625, -187500.015625, -187500.015625, -187500.015625, -187500.015625, -130483.0859375, -187500.015625, -0.4000000059604645, 0.8140000104904175, 0.3360000252723694, 192.0, 0.0, 0.0, 0.0, 0.0, 0.0, 0.0, 0.0, 0.0, 0.0, 1.6170038951988127E9, 2021-03-29 10:44:55.198
88.0, -46936.31640625, -3658.712158203125, 187500.0, -63767.69140625, -12494.0439453125, -29897.357421875, 6052.31591796875, -3975.5927734375, -187500.015625, -187500.015625, -187500.015625, -187500.015625, -187500.015625, -187500.015625, -130498.578125, -187500.015625, -0.3960000276565552, 0.8140000104904175, 0.3360000252723694, 192.0, 121.5, 80.0, 12.5, 56.0, 5.0, 64.0, 0.0, 0.0, 0.0, 1.6170038951988168E9, 2021-03-29 10:44:55.198
90.0, -47159.20703125, -3647.9609375, 187500.0, -63745.20703125, -12475.6484375, -29871.451171875, 6068.990234375, -3951.296630859375, -187500.015625, -187500.015625, -187500.015625, -187500.015625, -187500.015625, -187500.015625, -130510.9140625, -187500.015625, -0.3960000276565552, 0.8140000104904175, 0.3360000252723694, 192.0, 0.0, 0.0, 0.0, 0.0, 0.0, 0.0, 0.0, 0.0, 0.0, 1.6170038951988206E9, 2021-03-29 10:44:55.198
92.0, -46755.7578125, -3670.24560546875, 187500.0, -63768.80859375, -12504.7724609375, -29893.1328125, 6041.5419921875, -3972.664794921875, -187500.015625, -187500.015625, -187500.015625, -187500.015625, -187500.015625, -187500.015625, -130517.3984375, -187500.015625, -0.3960000276565552, 0.8140000104904175, 0.3360000252723694, 192.0, 0.0, 0.0, 0.0, 0.0, 0.0, 0.0, 0.0, 0.0, 0.0, 1.617003895198825E9, 2021-03-29 10:44:55.198
94.0, -46345.3359375, -3674.716064453125, 187500.0, -63760.515625, -12496.2568359375, -29886.740234375, 6038.30126953125, -3963.768798828125, -187500.015625, -187500.015625, -187500.015625, -187500.015625, -187500.015625, -187500.015625, -130532.1484375, -187500.015625, -0.3960000276565552, 0.8140000104904175, 0.3360000252723694, 192.0, 0.0, 0.0, 0.0, 0.0, 0.0, 0.0, 0.0, 0.0, 0.0, 1.6170038951988285E9, 2021-03-29 10:44:55.198
96.0, -46904.640625, -3689.9375, 187500.0, -63767.66796875, -12502.8720703125, -29894.943359375, 6043.84423828125, -3973.178955078125, -187500.015625, -187500.015625, -187500.015625, -187500.015625, -187500.015625, -187500.015625, -130530.4921875, -187500.015625, -0.3930000215768814, 0.8150000274181366, 0.3370000272989273, 192.0, 121.5, 104.0, 12.5, 64.0, 5.0, 72.0, 0.0, 0.0, 0.0, 1.6170038951988325E9, 2021-03-29 10:44:55.198
98.0, -46389.703125, -3680.68408203125, 187500.0, -63752.671875, -12495.541015625, -29885.7109375, 6050.818359375, -3967.2333984375, -187500.015625, -187500.015625, -187500.015625, -187500.015625, -187500.015625, -187500.015625, -130542.3203125, -187500.015625, -0.3930000215768814, 0.8150000274181366, 0.3370000272989273, 192.0, 0.0, 0.0, 0.0, 0.0, 0.0, 0.0, 0.0, 0.0, 0.0, 1.6170038951988363E9, 2021-03-29 10:44:55.198
100.0, -47161.2421875, -3671.87744140625, 187500.0, -63739.8203125, -12476.85546875, -29869.55078125, 6060.18359375, -3951.363525390625, -187500.015625, -187500.015625, -187500.015625, -187500.015625, -187500.015625, -187500.015625, -130557.2265625, -187500.015625, -0.3930000215768814, 0.8150000274181366, 0.3370000272989273, 192.0, 0.0, 0.0, 0.0, 0.0, 0.0, 0.0, 0.0, 0.0, 0.0, 1.6170038951988409E9, 2021-03-29 10:44:55.198
102.0, -47307.265625, -3687.05419921875, 187500.0, -63754.953125, -12495.09375, -29885.130859375, 6044.134765625, -3971.033203125, -187500.015625, -187500.015625, -187500.015625, -187500.015625, -187500.015625, -187500.015625, -130559.84375, -187500.015625, -0.3930000215768814, 0.8150000274181366, 0.3370000272989273, 192.0, 0.0, 0.0, 0.0, 0.0, 0.0, 0.0, 0.0, 0.0, 0.0, 1.6170038951988456E9, 2021-03-29 10:44:55.198
104.0, -47368.59765625, -3678.87353515625, 187500.0, -63736.6015625, -12471.736328125, -29865.9296875, 6053.63427734375, -3949.597900390625, -187500.015625, -187500.015625, -187500.015625, -187500.015625, -187500.015625, -187500.015625, -130575.0, -187500.015625, -0.3930000215768814, 0.8150000274181366, 0.3370000272989273, 192.0, 0.0, 0.0, 0.0, 0.0, 0.0, 0.0, 0.0, 0.0, 0.0, 1.6170038951988497E9, 2021-03-29 10:44:55.198
106.0, -48359.5625, -3680.28173828125, 187500.0, -63729.24609375, -12466.8193359375, -29857.794921875, 6078.3779296875, -3940.4111328125, -187500.015625, -187500.015625, -187500.015625, -187500.015625, -187500.015625, -187500.015625, -130577.4296875, -187500.015625, -0.3905000165104866, 0.817500039935112, 0.34550001472234726, 192.0, 121.5, 112.0, 12.5, 80.0, 5.5, 8.0, 0.0, 0.0, 0.0, 1.6170038951988535E9, 2021-03-29 10:44:55.198
108.0, -48066.0625, -3709.1376953125, 187500.0, -63763.82421875, -12500.458984375, -29894.048828125, 6047.0185546875, -3981.60546875, -187500.015625, -187500.015625, -187500.015625, -187500.015625, -187500.015625, -187500.015625, -130584.765625, -187500.015625, -0.3905000165104866, 0.817500039935112, 0.34550001472234726, 192.0, 0.0, 0.0, 0.0, 0.0, 0.0, 0.0, 0.0, 0.0, 0.0, 1.6170038951988575E9, 2021-03-29 10:44:55.198
110.0, -49019.80859375, -3676.101806640625, 187500.0, -63725.9375, -12458.5263671875, -29855.068359375, 6082.2001953125, -3938.35498046875, -187500.015625, -187500.015625, -187500.015625, -187500.015625, -187500.015625, -187500.015625, -130594.15625, -187500.015625, -0.3905000165104866, 0.817500039935112, 0.34550001472234726, 192.0, 0.0, 0.0, 0.0, 0.0, 0.0, 0.0, 0.0, 0.0, 0.0, 1.6170038951988618E9, 2021-03-29 10:44:55.198
112.0, -49311.8125, -3705.382568359375, 187500.0, -63759.77734375, -12492.6357421875, -29880.99609375, 6062.7763671875, -3968.462646484375, -187500.015625, -187500.015625, -187500.015625, -187500.015625, -187500.015625, -187500.015625, -130596.8984375, -187500.015625, -0.3905000165104866, 0.817500039935112, 0.34550001472234726, 192.0, 0.0, 0.0, 0.0, 0.0, 0.0, 0.0, 0.0, 0.0, 0.0, 1.617003895198866E9, 2021-03-29 10:44:55.198
114.0, -49492.03515625, -3714.7705078125, 187500.0, -63754.63671875, -12485.4384765625, -29868.814453125, 6063.9609375, -3960.773681640625, -187500.015625, -187500.015625, -187500.015625, -187500.015625, -187500.015625, -187500.015625, -130610.4921875, -187500.015625, -0.3905000165104866, 0.817500039935112, 0.34550001472234726, 192.0, 0.0, 0.0, 0.0, 0.0, 0.0, 0.0, 0.0, 0.0, 0.0, 1.6170038951988697E9, 2021-03-29 10:44:55.198
116.0, -50551.6875, -3717.117431640625, 187500.0, -63748.91796875, -12486.48828125, -29860.498046875, 6060.943359375, -3958.493896484375, -187500.015625, -187500.015625, -187500.015625, -187500.015625, -187500.015625, -187500.015625, -130610.734375, -187500.015625, -0.38725000992417336, 0.814750038087368, 0.3447500132024288, 192.0, 122.0, 0.0, 12.5, 48.0, 5.0, 96.0, 0.0, 0.0, 0.0, 1.6170038951988735E9, 2021-03-29 10:44:55.198
118.0, -50399.44921875, -3753.64013671875, 187500.0, -63777.5703125, -12510.3828125, -29888.37109375, 6042.7939453125, -3987.461669921875, -187500.015625, -187500.015625, -187500.015625, -187500.015625, -187500.015625, -187500.015625, -130620.28125, -187500.015625, -0.38725000992417336, 0.814750038087368, 0.3447500132024288, 192.0, 0.0, 0.0, 0.0, 0.0, 0.0, 0.0, 0.0, 0.0, 0.0, 1.6170038951988776E9, 2021-03-29 10:44:55.198
120.0, -51391.6640625, -3738.597412109375, 187500.0, -63737.3828125, -12471.4462890625, -29849.322265625, 6081.50732421875, -3951.475341796875, -187500.015625, -187500.015625, -187500.015625, -187500.015625, -187500.015625, -187500.015625, -130629.421875, -187500.015625, -0.38725000992417336, 0.814750038087368, 0.3447500132024288, 192.0, 0.0, 0.0, 0.0, 0.0, 0.0, 0.0, 0.0, 0.0, 0.0, 1.6170038956787732E9, 2021-03-29 10:44:55.678
122.0, -51760.11328125, -3775.79052734375, 187500.0, -63761.23046875, -12496.7705078125, -29865.818359375, 6061.05517578125, -3976.956298828125, -187500.015625, -187500.015625, -187500.015625, -187500.015625, -187500.015625, -187500.015625, -130629.0234375, -187500.015625, -0.38725000992417336, 0.814750038087368, 0.3447500132024288, 192.0, 0.0, 0.0, 0.0, 0.0, 0.0, 0.0, 0.0, 0.0, 0.0, 1.6170038956789472E9, 2021-03-29 10:44:55.678
124.0, -51926.05078125, -3795.236572265625, 187500.0, -63754.81640625, -12485.326171875, -29849.48046875, 6068.7666015625, -3954.2470703125, -187500.015625, -187500.015625, -187500.015625, -187500.015625, -187500.015625, -187500.015625, -130641.3828125, -187500.015625, -0.38725000992417336, 0.814750038087368, 0.3447500132024288, 192.0, 0.0, 0.0, 0.0, 0.0, 0.0, 0.0, 0.0, 0.0, 0.0, 1.6170038956789536E9, 2021-03-29 10:44:55.678
126.0, -52971.53125, -3781.177490234375, 187500.0, -63731.90625, -12464.0478515625, -29821.025390625, 6101.3779296875, -3922.2392578125, -187500.015625, -187500.015625, -187500.015625, -187500.015625, -187500.015625, -187500.015625, -130638.96875, -187500.015625, -0.38562500663101673, 0.8113750331103802, 0.34637501649558544, 192.0, 122.0, 0.0, 12.5, 32.0, 5.0, 112.0, 0.0, 0.0, 0.0, 1.6170038956789627E9, 2021-03-29 10:44:55.678
128.0, -52773.62890625, -3803.439697265625, 187500.0, -63753.765625, -12483.560546875, -29840.025390625, 6079.47314453125, -3943.585205078125, -187500.015625, -187500.015625, -187500.015625, -187500.015625, -187500.015625, -187500.015625, -130649.765625, -187500.015625, -0.38562500663101673, 0.8113750331103802, 0.34637501649558544, 192.0, 0.0, 0.0, 0.0, 0.0, 0.0, 0.0, 0.0, 0.0, 0.0, 1.6170038956789691E9, 2021-03-29 10:44:55.678
130.0, -53662.06640625, -3794.20849609375, 187500.0, -63732.62109375, -12460.8515625, -29820.130859375, 6109.9384765625, -3921.34521484375, -187500.015625, -187500.015625, -187500.015625, -187500.015625, -187500.015625, -187500.015625, -130658.03125, -187500.015625, -0.38562500663101673, 0.8113750331103802, 0.34637501649558544, 192.0, 0.0, 0.0, 0.0, 0.0, 0.0, 0.0, 0.0, 0.0, 0.0, 1.6170038956789746E9, 2021-03-29 10:44:55.678
132.0, -53925.21484375, -3809.67578125, 187500.0, -63754.4140625, -12490.5341796875, -29845.076171875, 6078.82470703125, -3951.20703125, -187500.015625, -187500.015625, -187500.015625, -187500.015625, -187500.015625, -187500.015625, -130660.625, -187500.015625, -0.38562500663101673, 0.8113750331103802, 0.34637501649558544, 192.0, 0.0, 0.0, 0.0, 0.0, 0.0, 0.0, 0.0, 0.0, 0.0, 1.6170038956789804E9, 2021-03-29 10:44:55.678
134.0, -53987.6640625, -3812.4921875, 187500.0, -63753.0078125, -12484.5439453125, -29838.99609375, 6079.96484375, -3953.71044921875, -187500.015625, -187500.015625, -187500.015625, -187500.015625, -187500.015625, -187500.015625, -130668.3828125, -187500.015625, -0.38562500663101673, 0.8113750331103802, 0.34637501649558544, 192.0, 0.0, 0.0, 0.0, 0.0, 0.0, 0.0, 0.0, 0.0, 0.0, 1.6170038956789856E9, 2021-03-29 10:44:55.678
136.0, -54913.2734375, -3793.046142578125, 187500.0, -63731.5703125, -12463.9130859375, -29814.208984375, 6097.68994140625, -3931.403564453125, -187500.015625, -187500.015625, -187500.015625, -187500.015625, -187500.015625, -187500.015625, -130666.53125, -187500.015625, -0.3838125178590417, 0.8126875218003988, 0.3451875140890479, 192.0, 122.0, 8.0, 12.5, 56.0, 5.0, 96.0, 0.0, 0.0, 0.0, 1.6170038956789913E9, 2021-03-29 10:44:55.678
138.0, -54577.3046875, -3833.458251953125, 187500.0, -63777.48046875, -12502.73828125, -29860.23046875, 6061.591796875, -3974.542236328125, -187500.015625, -187500.015625, -187500.015625, -187500.015625, -187500.015625, -187500.015625, -130672.8984375, -187500.015625, -0.3838125178590417, 0.8126875218003988, 0.3451875140890479, 192.0, 0.0, 0.0, 0.0, 0.0, 0.0, 0.0, 0.0, 0.0, 0.0, 1.6170038956790144E9, 2021-03-29 10:44:55.679
140.0, -55279.6171875, -3815.621337890625, 187500.0, -63756.5390625, -12476.162109375, -29842.103515625, 6094.158203125, -3947.876708984375, -187500.015625, -187500.015625, -187500.015625, -187500.015625, -187500.015625, -187500.015625, -130673.34375, -187500.015625, -0.3838125178590417, 0.8126875218003988, 0.3451875140890479, 192.0, 0.0, 0.0, 0.0, 0.0, 0.0, 0.0, 0.0, 0.0, 0.0, 1.617003895679021E9, 2021-03-29 10:44:55.679
142.0, -55455.859375, -3816.448486328125, 187500.0, -63775.8515625, -12498.1337890625, -29862.265625, 6060.18359375, -3977.13525390625, -187500.015625, -187500.015625, -187500.015625, -187500.015625, -187500.015625, -187500.015625, -130670.75, -187500.015625, -0.3838125178590417, 0.8126875218003988, 0.3451875140890479, 192.0, 0.0, 0.0, 0.0, 0.0, 0.0, 0.0, 0.0, 0.0, 0.0, 1.6170038956790268E9, 2021-03-29 10:44:55.679
144.0, -55405.74609375, -3814.056884765625, 187500.0, -63777.70703125, -12501.28515625, -29864.857421875, 6063.7373046875, -3983.348876953125, -187500.015625, -187500.015625, -187500.015625, -187500.015625, -187500.015625, -187500.015625, -130678.953125, -187500.015625, -0.3838125178590417, 0.8126875218003988, 0.3451875140890479, 192.0, 0.0, 0.0, 0.0, 0.0, 0.0, 0.0, 0.0, 0.0, 0.0, 1.6170038956790323E9, 2021-03-29 10:44:55.679
146.0, -56228.6953125, -3803.037353515625, 187500.0, -63771.3359375, -12496.994140625, -29853.033203125, 6080.12109375, -3969.93798828125, -187500.015625, -187500.015625, -187500.015625, -187500.015625, -187500.015625, -187500.015625, -130671.3359375, -187500.015625, -0.3809062694199383, 0.8143437830731273, 0.3505937601439655, 192.0, 122.0, 24.0, 12.5, 64.0, 5.5, 16.0, 0.0, 0.0, 0.0, 1.6170038956790383E9, 2021-03-29 10:44:55.679
148.0, -55830.98828125, -3822.326904296875, 187500.0, -63806.94140625, -12525.2685546875, -29884.75, 6044.24658203125, -4003.554931640625, -187500.015625, -187500.015625, -187500.015625, -187500.015625, -187500.015625, -187500.015625, -130674.6171875, -187500.015625, -0.3809062694199383, 0.8143437830731273, 0.3505937601439655, 192.0, 0.0, 0.0, 0.0, 0.0, 0.0, 0.0, 0.0, 0.0, 0.0, 1.617003895679044E9, 2021-03-29 10:44:55.679
150.0, -56413.38671875, -3805.697265625, 187500.0, -63791.96484375, -12503.2744140625, -29858.93359375, 6064.765625, -3976.688232421875, -187500.015625, -187500.015625, -187500.015625, -187500.015625, -187500.015625, -187500.015625, -130674.28125, -187500.015625, -0.3809062694199383, 0.8143437830731273, 0.3505937601439655, 192.0, 0.0, 0.0, 0.0, 0.0, 0.0, 0.0, 0.0, 0.0, 0.0, 1.6170038956790507E9, 2021-03-29 10:44:55.679
152.0, -56399.796875, -3807.6865234375, 187500.0, -63816.62109375, -12529.91796875, -29886.806640625, 6025.91845703125, -4010.841552734375, -187500.015625, -187500.015625, -187500.015625, -187500.015625, -187500.015625, -187500.015625, -130666.796875, -187500.015625, -0.3809062694199383, 0.8143437830731273, 0.3505937601439655, 192.0, 0.0, 0.0, 0.0, 0.0, 0.0, 0.0, 0.0, 0.0, 0.0, 1.6170038956790583E9, 2021-03-29 10:44:55.679
154.0, -56135.1953125, -3787.838134765625, 187500.0, -63801.59765625, -12514.4287109375, -29872.904296875, 6030.74609375, -4007.01953125, -187500.015625, -187500.015625, -187500.015625, -187500.015625, -187500.015625, -187500.015625, -130670.1484375, -187500.015625, -0.3809062694199383, 0.8143437830731273, 0.3505937601439655, 192.0, 0.0, 0.0, 0.0, 0.0, 0.0, 0.0, 0.0, 0.0, 0.0, 1.6170038956790645E9, 2021-03-29 10:44:55.679
156.0, -56749.6484375, -3782.80908203125, 187500.0, -63807.27734375, -12515.6357421875, -29878.671875, 6037.11669921875, -4010.327392578125, -187500.015625, -187500.015625, -187500.015625, -187500.015625, -187500.015625, -187500.015625, -130661.2265625, -187500.015625, -0.37945314520038664, 0.8111719056032598, 0.3492968899663538, 192.0, 122.0, 24.0, 12.5, 32.0, 5.0, 112.0, 0.0, 0.0, 0.0, 1.6170038956790705E9, 2021-03-29 10:44:55.679
158.0, -56302.45703125, -3779.858642578125, 187500.0, -63818.51953125, -12524.1962890625, -29887.767578125, 6036.31201171875, -4009.0087890625, -187500.015625, -187500.015625, -187500.015625, -187500.015625, -187500.015625, -187500.015625, -130662.4375, -187500.015625, -0.37945314520038664, 0.8111719056032598, 0.3492968899663538, 192.0, 0.0, 0.0, 0.0, 0.0, 0.0, 0.0, 0.0, 0.0, 0.0, 1.6170038956790757E9, 2021-03-29 10:44:55.679
160.0, -56914.08984375, -3764.949951171875, 187500.0, -63797.3984375, -12500.0341796875, -29857.615234375, 6058.06005859375, -3977.91748046875, -187500.015625, -187500.015625, -187500.015625, -187500.015625, -187500.015625, -187500.015625, -130663.109375, -187500.015625, -0.37945314520038664, 0.8111719056032598, 0.3492968899663538, 192.0, 0.0, 0.0, 0.0, 0.0, 0.0, 0.0, 0.0, 0.0, 0.0, 1.6170038956790812E9, 2021-03-29 10:44:55.679
162.0, -57112.4609375, -3756.5234375, 187500.0, -63804.52734375, -12509.421875, -29861.548828125, 6046.03466796875, -3995.173095703125, -187500.015625, -187500.015625, -187500.015625, -187500.015625, -187500.015625, -187500.015625, -130655.1484375, -187500.015625, -0.37945314520038664, 0.8111719056032598, 0.3492968899663538, 192.0, 0.0, 0.0, 0.0, 0.0, 0.0, 0.0, 0.0, 0.0, 0.0, 1.6170038956790867E9, 2021-03-29 10:44:55.679
164.0, -57095.76171875, -3750.44384765625, 187500.0, -63792.2578125, -12494.53515625, -29846.9765625, 6048.71728515625, -3988.355712890625, -187500.015625, -187500.015625, -187500.015625, -187500.015625, -187500.015625, -187500.015625, -130660.3125, -187500.015625, -0.37945314520038664, 0.8111719056032598, 0.3492968899663538, 192.0, 0.0, 0.0, 0.0, 0.0, 0.0, 0.0, 0.0, 0.0, 0.0, 1.6170038956790922E9, 2021-03-29 10:44:55.679
166.0, -58015.3359375, -3744.54296875, 187500.0, -63789.3046875, -12487.181640625, -29840.740234375, 6047.1748046875, -3980.30908203125, -187500.015625, -187500.015625, -187500.015625, -187500.015625, -187500.015625, -187500.015625, -130653.3828125, -187500.015625, -0.3827265762956813, 0.8115859709214419, 0.3486484548775479, 192.0, 121.5, 120.0, 12.5, 48.0, 5.0, 112.0, 0.0, 0.0, 0.0, 1.6170038956790977E9, 2021-03-29 10:44:55.679
168.0, -57909.0078125, -3755.383544921875, 187500.0, -63801.80078125, -12503.3193359375, -29850.708984375, 6044.71630859375, -3995.6201171875, -187500.015625, -187500.015625, -187500.015625, -187500.015625, -187500.015625, -187500.015625, -130654.3203125, -187500.015625, -0.3827265762956813, 0.8115859709214419, 0.3486484548775479, 192.0, 0.0, 0.0, 0.0, 0.0, 0.0, 0.0, 0.0, 0.0, 0.0, 1.6170038956791031E9, 2021-03-29 10:44:55.679
170.0, -58868.43359375, -3747.962646484375, 187500.0, -63781.97265625, -12471.6474609375, -29824.892578125, 6075.5615234375, -3973.0224609375, -187500.015625, -187500.015625, -187500.015625, -187500.015625, -187500.015625, -187500.015625, -130657.4296875, -187500.015625, -0.3827265762956813, 0.8115859709214419, 0.3486484548775479, 192.0, 0.0, 0.0, 0.0, 0.0, 0.0, 0.0, 0.0, 0.0, 0.0, 1.617003895679109E9, 2021-03-29 10:44:55.679
172.0, -59402.73046875, -3764.01123046875, 187500.0, -63805.80078125, -12490.4453125, -29841.0078125, 6055.3330078125, -3985.0029296875, -187500.015625, -187500.015625, -187500.015625, -187500.015625, -187500.015625, -187500.015625, -130650.1640625, -187500.015625, -0.3827265762956813, 0.8115859709214419, 0.3486484548775479, 192.0, 0.0, 0.0, 0.0, 0.0, 0.0, 0.0, 0.0, 0.0, 0.0, 1.6170038956791184E9, 2021-03-29 10:44:55.679
174.0, -59585.859375, -3766.872314453125, 187500.0, -63795.85546875, -12482.80078125, -29832.916015625, 6063.201171875, -3977.671630859375, -187500.015625, -187500.015625, -187500.015625, -187500.015625, -187500.015625, -187500.015625, -130655.578125, -187500.015625, -0.3827265762956813, 0.8115859709214419, 0.3486484548775479, 192.0, 0.0, 0.0, 0.0, 0.0, 0.0, 0.0, 0.0, 0.0, 0.0, 1.617003895679124E9, 2021-03-29 10:44:55.679
176.0, -60452.59375, -3750.1533203125, 187500.0, -63778.48828125, -12474.7314453125, -29824.37890625, 6072.5439453125, -3971.6142578125, -187500.015625, -187500.015625, -187500.015625, -187500.015625, -187500.015625, -187500.015625, -130651.734375, -187500.015625, -0.38536329386988655, 0.8147929947590455, 0.3443242292269133, 192.0, 121.5, 112.0, 12.5, 72.0, 5.0, 80.0, 0.0, 0.0, 0.0, 1.6170038956791291E9, 2021-03-29 10:44:55.679
178.0, -59923.52734375, -3760.189208984375, 187500.0, -63803.609375, -12518.5859375, -29855.873046875, 6026.56640625, -4009.0087890625, -187500.015625, -187500.015625, -187500.015625, -187500.015625, -187500.015625, -187500.015625, -130656.890625, -187500.015625, -0.38536329386988655, 0.8147929947590455, 0.3443242292269133, 192.0, 0.0, 0.0, 0.0, 0.0, 0.0, 0.0, 0.0, 0.0, 0.0, 1.6170038956791353E9, 2021-03-29 10:44:55.679
180.0, -59972.72265625, -3763.921875, 187500.0, -63802.11328125, -12517.087890625, -29858.353515625, 6026.45458984375, -4010.953369140625, -187500.015625, -187500.015625, -187500.015625, -187500.015625, -187500.015625, -187500.015625, -130661.546875, -187500.015625, -0.38536329386988655, 0.8147929947590455, 0.3443242292269133, 192.0, 0.0, 0.0, 0.0, 0.0, 0.0, 0.0, 0.0, 0.0, 0.0, 1.6170038956791408E9, 2021-03-29 10:44:55.679
182.0, -59277.18359375, -3757.328125, 187500.0, -63817.625, -12546.2353515625, -29872.099609375, 5989.12744140625, -4035.96484375, -187500.015625, -187500.015625, -187500.015625, -187500.015625, -187500.015625, -187500.015625, -130659.015625, -187500.015625, -0.38536329386988655, 0.8147929947590455, 0.3443242292269133, 192.0, 0.0, 0.0, 0.0, 0.0, 0.0, 0.0, 0.0, 0.0, 0.0, 1.6170038956791463E9, 2021-03-29 10:44:55.679
184.0, -58025.3515625, -3750.555419921875, 187500.0, -63809.7578125, -12542.859375, -29859.828125, 6007.65673828125, -4036.30029296875, -187500.015625, -187500.015625, -187500.015625, -187500.015625, -187500.015625, -187500.015625, -130667.9609375, -187500.015625, -0.38536329386988655, 0.8147929947590455, 0.3443242292269133, 192.0, 0.0, 0.0, 0.0, 0.0, 0.0, 0.0, 0.0, 0.0, 0.0, 1.6170038956791518E9, 2021-03-29 10:44:55.679
186.0, -57666.29296875, -3735.468017578125, 187500.0, -63810.18359375, -12534.5, -29848.361328125, 6006.85205078125, -4022.330322265625, -187500.015625, -187500.015625, -187500.015625, -187500.015625, -187500.015625, -187500.015625, -130665.5, -187500.015625, -0.3876816546835471, 0.8163965066778474, 0.3461621245078277, 192.0, 121.5, 104.0, 12.5, 72.0, 5.0, 112.0, 0.0, 0.0, 0.0, 1.6170038956791575E9, 2021-03-29 10:44:55.679
188.0, -56293.15625, -3737.63623046875, 187500.0, -63834.65625, -12555.779296875, -29872.724609375, 5979.53857421875, -4044.70458984375, -187500.015625, -187500.015625, -187500.015625, -187500.015625, -187500.015625, -187500.015625, -130670.0625, -187500.015625, -0.3876816546835471, 0.8163965066778474, 0.3461621245078277, 192.0, 0.0, 0.0, 0.0, 0.0, 0.0, 0.0, 0.0, 0.0, 0.0, 1.617003895679163E9, 2021-03-29 10:44:55.679
190.0, -56022.3671875, -3747.64990234375, 187500.0, -63837.16015625, -12555.421875, -29879.05078125, 5983.181640625, -4045.08447265625, -187500.015625, -187500.015625, -187500.015625, -187500.015625, -187500.015625, -187500.015625, -130675.203125, -187500.015625, -0.3876816546835471, 0.8163965066778474, 0.3461621245078277, 192.0, 0.0, 0.0, 0.0, 0.0, 0.0, 0.0, 0.0, 0.0, 0.0, 1.6170038956791685E9, 2021-03-29 10:44:55.679
192.0, -55535.12109375, -3731.288330078125, 187500.0, -63836.8046875, -12565.994140625, -29886.650390625, 5969.8154296875, -4050.89599609375, -187500.015625, -187500.015625, -187500.015625, -187500.015625, -187500.015625, -187500.015625, -130668.515625, -187500.015625, -0.3876816546835471, 0.8163965066778474, 0.3461621245078277, 192.0, 0.0, 0.0, 0.0, 0.0, 0.0, 0.0, 0.0, 0.0, 0.0, 1.617003895679174E9, 2021-03-29 10:44:55.679
194.0, -54482.26171875, -3738.01611328125, 187500.0, -63832.9375, -12566.5751953125, -29891.76953125, 5967.4013671875, -4055.925048828125, -187500.015625, -187500.015625, -187500.015625, -187500.015625, -187500.015625, -187500.015625, -130679.0, -187500.015625, -0.3876816546835471, 0.8163965066778474, 0.3461621245078277, 192.0, 0.0, 0.0, 0.0, 0.0, 0.0, 0.0, 0.0, 0.0, 0.0, 1.6170038956791797E9, 2021-03-29 10:44:55.679
196.0, -54701.53515625, -3739.02197265625, 187500.0, -63812.6171875, -12557.6123046875, -29874.892578125, 5970.6201171875, -4046.939697265625, -187500.015625, -187500.015625, -187500.015625, -187500.015625, -187500.015625, -187500.015625, -130671.9375, -187500.015625, -0.3868408310372615, 0.8171982626372483, 0.34208107691665646, 192.0, 121.5, 120.0, 12.5, 72.0, 5.0, 72.0, 0.0, 0.0, 0.0, 1.6170038956791852E9, 2021-03-29 10:44:55.679
198.0, -54522.5625, -3716.290283203125, 187500.0, -63780.1640625, -12538.8583984375, -29843.623046875, 6004.8408203125, -4020.967041015625, -187500.015625, -187500.015625, -187500.015625, -187500.015625, -187500.015625, -187500.015625, -130676.6328125, -187500.015625, -0.3868408310372615, 0.8171982626372483, 0.34208107691665646, 192.0, 0.0, 0.0, 0.0, 0.0, 0.0, 0.0, 0.0, 0.0, 0.0, 1.617003895679191E9, 2021-03-29 10:44:55.679
200.0, -55285.47265625, -3710.992919921875, 187500.0, -63759.2421875, -12511.791015625, -29819.283203125, 6031.50634765625, -3991.976806640625, -187500.015625, -187500.015625, -187500.015625, -187500.015625, -187500.015625, -187500.015625, -130683.25, -187500.015625, -0.3868408310372615, 0.8171982626372483, 0.34208107691665646, 192.0, 0.0, 0.0, 0.0, 0.0, 0.0, 0.0, 0.0, 0.0, 0.0, 1.6170038956791964E9, 2021-03-29 10:44:55.679
202.0, -55476.87109375, -3703.974609375, 187500.0, -63768.5625, -12523.1455078125, -29831.75390625, 6025.0244140625, -4007.220703125, -187500.015625, -187500.015625, -187500.015625, -187500.015625, -187500.015625, -187500.015625, -130679.15625, -187500.015625, -0.3868408310372615, 0.8171982626372483, 0.34208107691665646, 192.0, 0.0, 0.0, 0.0, 0.0, 0.0, 0.0, 0.0, 0.0, 0.0, 1.6170038956792016E9, 2021-03-29 10:44:55.679
204.0, -55449.87109375, -3726.9296875, 187500.0, -63773.79296875, -12521.2236328125, -29834.392578125, 6021.7607421875, -4010.6181640625, -187500.015625, -187500.015625, -187500.015625, -187500.015625, -187500.015625, -187500.015625, -130684.9921875, -187500.015625, -0.3868408310372615, 0.8171982626372483, 0.34208107691665646, 192.0, 0.0, 0.0, 0.0, 0.0, 0.0, 0.0, 0.0, 0.0, 0.0, 1.617003895679207E9, 2021-03-29 10:44:55.679
206.0, -56714.5078125, -3713.183349609375, 187500.0, -63741.62890625, -12491.65234375, -29799.9921875, 6058.43994140625, -3977.783447265625, -187500.015625, -187500.015625, -187500.015625, -187500.015625, -187500.015625, -187500.015625, -130680.453125, -187500.015625, -0.3894204252937925, 0.816599153491552, 0.34404054632614134, 192.0, 121.5, 96.0, 12.5, 64.0, 5.0, 104.0, 0.0, 0.0, 0.0, 1.6170038956792145E9, 2021-03-29 10:44:55.679
208.0, -57337.296875, -3719.888916015625, 187500.0, -63735.55078125, -12482.80078125, -29792.326171875, 6066.10693359375, -3970.228515625, -187500.015625, -187500.015625, -187500.015625, -187500.015625, -187500.015625, -187500.015625, -130682.3984375, -187500.015625, -0.3894204252937925, 0.816599153491552, 0.34404054632614134, 192.0, 0.0, 0.0, 0.0, 0.0, 0.0, 0.0, 0.0, 0.0, 0.0, 1.6170038956792195E9, 2021-03-29 10:44:55.679
210.0, -58579.25, -3709.1376953125, 187500.0, -63727.83984375, -12461.5439453125, -29783.787109375, 6084.3232421875, -3960.684326171875, -187500.015625, -187500.015625, -187500.015625, -187500.015625, -187500.015625, -187500.015625, -130686.3515625, -187500.015625, -0.3894204252937925, 0.816599153491552, 0.34404054632614134, 192.0, 0.0, 0.0, 0.0, 0.0, 0.0, 0.0, 0.0, 0.0, 0.0, 1.6170038956792247E9, 2021-03-29 10:44:55.679
212.0, -58287.06640625, -3711.372802734375, 187500.0, -63766.375, -12508.7958984375, -29820.646484375, 6036.51318359375, -4004.001953125, -187500.015625, -187500.015625, -187500.015625, -187500.015625, -187500.015625, -187500.015625, -130682.6171875, -187500.015625, -0.3894204252937925, 0.816599153491552, 0.34404054632614134, 192.0, 0.0, 0.0, 0.0, 0.0, 0.0, 0.0, 0.0, 0.0, 0.0, 1.6170038956792305E9, 2021-03-29 10:44:55.679
214.0, -57427.41796875, -3725.968505859375, 187500.0, -63770.6875, -12515.2998046875, -29821.49609375, 6039.23974609375, -4002.07958984375, -187500.015625, -187500.015625, -187500.015625, -187500.015625, -187500.015625, -187500.015625, -130692.4140625, -187500.015625, -0.3894204252937925, 0.816599153491552, 0.34404054632614134, 192.0, 0.0, 0.0, 0.0, 0.0, 0.0, 0.0, 0.0, 0.0, 0.0, 1.617003895679236E9, 2021-03-29 10:44:55.679
216.0, -58321.0859375, -3724.180419921875, 187500.0, -63748.42578125, -12494.9150390625, -29794.181640625, 6059.6025390625, -3979.571533203125, -187500.015625, -187500.015625, -187500.015625, -187500.015625, -187500.015625, -187500.015625, -130686.1328125, -187500.015625, -0.38771021634238423, 0.8182996029718197, 0.34202027495121, 192.0, 121.5, 120.0, 12.5, 80.0, 5.0, 80.0, 0.0, 0.0, 0.0, 1.6170038956792412E9, 2021-03-29 10:44:55.679
218.0, -58372.8515625, -3707.885986328125, 187500.0, -63750.48046875, -12496.501953125, -29792.169921875, 6062.5302734375, -3975.0341796875, -187500.015625, -187500.015625, -187500.015625, -187500.015625, -187500.015625, -187500.015625, -130688.6328125, -187500.015625, -0.38771021634238423, 0.8182996029718197, 0.34202027495121, 192.0, 0.0, 0.0, 0.0, 0.0, 0.0, 0.0, 0.0, 0.0, 0.0, 1.617003895679247E9, 2021-03-29 10:44:55.679
220.0, -58570.5546875, -3717.296142578125, 187500.0, -63760.203125, -12497.4853515625, -29798.294921875, 6059.84814453125, -3980.867919921875, -187500.015625, -187500.015625, -187500.015625, -187500.015625, -187500.015625, -187500.015625, -130692.9453125, -187500.015625, -0.38771021634238423, 0.8182996029718197, 0.34202027495121, 192.0, 0.0, 0.0, 0.0, 0.0, 0.0, 0.0, 0.0, 0.0, 0.0, 1.617003895679252E9, 2021-03-29 10:44:55.679
222.0, -58235.5, -3721.095947265625, 187500.0, -63775.60546875, -12525.42578125, -29820.958984375, 6027.169921875, -4007.220703125, -187500.015625, -187500.015625, -187500.015625, -187500.015625, -187500.015625, -187500.015625, -130689.1953125, -187500.015625, -0.38771021634238423, 0.8182996029718197, 0.34202027495121, 192.0, 0.0, 0.0, 0.0, 0.0, 0.0, 0.0, 0.0, 0.0, 0.0, 1.6170038956792579E9, 2021-03-29 10:44:55.679
224.0, -57573.5546875, -3731.690673828125, 187500.0, -63775.91796875, -12524.12890625, -29825.541015625, 6034.6357421875, -4014.775390625, -187500.015625, -187500.015625, -187500.015625, -187500.015625, -187500.015625, -187500.015625, -130696.34375, -187500.015625, -0.38771021634238423, 0.8182996029718197, 0.34202027495121, 192.0, 0.0, 0.0, 0.0, 0.0, 0.0, 0.0, 0.0, 0.0, 0.0, 1.617003895679263E9, 2021-03-29 10:44:55.679
226.0, -57764.50390625, -3721.274658203125, 187500.0, -63772.1640625, -12524.7548828125, -29818.03125, 6019.32470703125, -4016.69775390625, -187500.015625, -187500.015625, -187500.015625, -187500.015625, -187500.015625, -187500.015625, -130692.65625, -187500.015625, -0.387855113893238, 0.8191498277119535, 0.3470101514230919, 192.0, 121.5, 112.0, 12.5, 80.0, 5.5, 0.0, 0.0, 0.0, 0.0, 1.6170038956792686E9, 2021-03-29 10:44:55.679
228.0, -56836.23828125, -3717.63134765625, 187500.0, -63780.74609375, -12536.265625, -29824.78125, 6016.70947265625, -4017.345947265625, -187500.015625, -187500.015625, -187500.015625, -187500.015625, -187500.015625, -187500.015625, -130696.1640625, -187500.015625, -0.387855113893238, 0.8191498277119535, 0.3470101514230919, 192.0, 0.0, 0.0, 0.0, 0.0, 0.0, 0.0, 0.0, 0.0, 0.0, 1.6170038956792736E9, 2021-03-29 10:44:55.679
230.0, -56784.89453125, -3715.195068359375, 187500.0, -63761.34375, -12512.55078125, -29807.771484375, 6038.748046875, -3997.3857421875, -187500.015625, -187500.015625, -187500.015625, -187500.015625, -187500.015625, -187500.015625, -130704.6796875, -187500.015625, -0.387855113893238, 0.8191498277119535, 0.3470101514230919, 192.0, 0.0, 0.0, 0.0, 0.0, 0.0, 0.0, 0.0, 0.0, 0.0, 1.617003895679279E9, 2021-03-29 10:44:55.679
232.0, -56439.875, -3717.5419921875, 187500.0, -63781.328125, -12526.5205078125, -29824.78125, 6020.576171875, -4017.68115234375, -187500.015625, -187500.015625, -187500.015625, -187500.015625, -187500.015625, -187500.015625, -130700.75, -187500.015625, -0.387855113893238, 0.8191498277119535, 0.3470101514230919, 192.0, 0.0, 0.0, 0.0, 0.0, 0.0, 0.0, 0.0, 0.0, 0.0, 1.6170038956792865E9, 2021-03-29 10:44:55.679
234.0, -55771.9375, -3725.83447265625, 187500.0, -63773.2109375, -12520.8212890625, -29811.951171875, 6025.51611328125, -4005.90185546875, -187500.015625, -187500.015625, -187500.015625, -187500.015625, -187500.015625, -187500.015625, -130706.46875, -187500.015625, -0.387855113893238, 0.8191498277119535, 0.3470101514230919, 192.0, 0.0, 0.0, 0.0, 0.0, 0.0, 0.0, 0.0, 0.0, 0.0, 1.6170038956792932E9, 2021-03-29 10:44:55.679
236.0, -56063.91796875, -3718.25732421875, 187500.0, -63763.17578125, -12508.8623046875, -29799.27734375, 6045.029296875, -3995.10595703125, -187500.015625, -187500.015625, -187500.015625, -187500.015625, -187500.015625, -187500.015625, -130705.3515625, -187500.015625, -0.39092756874833867, 0.8155749319757888, 0.3395050842946148, 192.0, 121.5, 88.0, 12.5, 48.0, 5.0, 48.0, 0.0, 0.0, 0.0, 1.6170038956792989E9, 2021-03-29 10:44:55.679
238.0, -55210.59375, -3716.781982421875, 187500.0, -63773.125, -12533.337890625, -29816.01953125, 6020.7548828125, -4017.591796875, -187500.015625, -187500.015625, -187500.015625, -187500.015625, -187500.015625, -187500.015625, -130712.28125, -187500.015625, -0.39092756874833867, 0.8155749319757888, 0.3395050842946148, 192.0, 0.0, 0.0, 0.0, 0.0, 0.0, 0.0, 0.0, 0.0, 0.0, 1.6170038956793044E9, 2021-03-29 10:44:55.679
240.0, -55215.35546875, -3719.911376953125, 187500.0, -63757.72265625, -12517.53515625, -29801.490234375, 6031.26025390625, -4006.3935546875, -187500.015625, -187500.015625, -187500.015625, -187500.015625, -187500.015625, -187500.015625, -130716.8828125, -187500.015625, -0.39092756874833867, 0.8155749319757888, 0.3395050842946148, 192.0, 0.0, 0.0, 0.0, 0.0, 0.0, 0.0, 0.0, 0.0, 0.0, 1.6170038961584177E9, 2021-03-29 10:44:56.158
242.0, -54913.4296875, -3704.935546875, 187500.0, -63760.25, -12531.482421875, -29806.85546875, 6025.560546875, -4008.539306640625, -187500.015625, -187500.015625, -187500.015625, -187500.015625, -187500.015625, -187500.015625, -130714.984375, -187500.015625, -0.39092756874833867, 0.8155749319757888, 0.3395050842946148, 192.0, 0.0, 0.0, 0.0, 0.0, 0.0, 0.0, 0.0, 0.0, 0.0, 1.6170038961585536E9, 2021-03-29 10:44:56.158
244.0, -54254.296875, -3697.04541015625, 187500.0, -63740.17578125, -12522.0283203125, -29796.349609375, 6035.86474609375, -4000.69384765625, -187500.015625, -187500.015625, -187500.015625, -187500.015625, -187500.015625, -187500.015625, -130723.4140625, -187500.015625, -0.39092756874833867, 0.8155749319757888, 0.3395050842946148, 192.0, 0.0, 0.0, 0.0, 0.0, 0.0, 0.0, 0.0, 0.0, 0.0, 1.6170038961585639E9, 2021-03-29 10:44:56.158
246.0, -54554.79296875, -3694.1396484375, 187500.0, -63734.4765625, -12526.1181640625, -29788.19140625, 6043.64306640625, -3993.966064453125, -187500.015625, -187500.015625, -187500.015625, -187500.015625, -187500.015625, -187500.015625, -130719.0546875, -187500.015625, -0.392463796175889, 0.8137874841077064, 0.3417525479885626, 192.0, 121.5, 88.0, 12.5, 48.0, 5.0, 96.0, 0.0, 0.0, 0.0, 1.6170038961585703E9, 2021-03-29 10:44:56.158
248.0, -53759.8984375, -3666.915283203125, 187500.0, -63724.62109375, -12525.6708984375, -29778.982421875, 6047.6220703125, -3987.662841796875, -187500.015625, -187500.015625, -187500.015625, -187500.015625, -187500.015625, -187500.015625, -130726.5390625, -187500.015625, -0.392463796175889, 0.8137874841077064, 0.3417525479885626, 192.0, 0.0, 0.0, 0.0, 0.0, 0.0, 0.0, 0.0, 0.0, 0.0, 1.617003896158578E9, 2021-03-29 10:44:56.158
250.0, -53789.0234375, -3683.05322265625, 187500.0, -63723.0546875, -12517.69140625, -29778.04296875, 6045.0068359375, -3988.579345703125, -187500.015625, -187500.015625, -187500.015625, -187500.015625, -187500.015625, -187500.015625, -130731.3046875, -187500.015625, -0.392463796175889, 0.8137874841077064, 0.3417525479885626, 192.0, 0.0, 0.0, 0.0, 0.0, 0.0, 0.0, 0.0, 0.0, 0.0, 1.6170038961585827E9, 2021-03-29 10:44:56.158
252.0, -53450.953125, -3688.417724609375, 187500.0, -63747.8203125, -12548.9619140625, -29799.142578125, 5991.89892578125, -4019.71533203125, -187500.015625, -187500.015625, -187500.015625, -187500.015625, -187500.015625, -187500.015625, -130726.203125, -187500.015625, -0.392463796175889, 0.8137874841077064, 0.3417525479885626, 192.0, 0.0, 0.0, 0.0, 0.0, 0.0, 0.0, 0.0, 0.0, 0.0, 1.617003896158592E9, 2021-03-29 10:44:56.158
254.0, -52651.07421875, -3685.333251953125, 187500.0, -63734.09765625, -12539.1494140625, -29784.66015625, 6016.53076171875, -4008.047607421875, -187500.015625, -187500.015625, -187500.015625, -187500.015625, -187500.015625, -187500.015625, -130729.515625, -187500.015625, -0.392463796175889, 0.8137874841077064, 0.3417525479885626, 192.0, 0.0, 0.0, 0.0, 0.0, 0.0, 0.0, 0.0, 0.0, 0.0, 1.6170038961586025E9, 2021-03-29 10:44:56.158
0.0, -52938.16015625, -3656.49951171875, 187500.0, -63708.7734375, -12518.2724609375, -29761.81640625, 6053.25439453125, -3981.8291015625, -187500.015625, -187500.015625, -187500.015625, -187500.015625, -187500.015625, -187500.015625, -130732.625, -187500.015625, -0.3892319017834325, 0.8118937730482685, 0.3428762798355365, 192.0, 121.5, 120.0, 12.5, 40.0, 5.0, 96.0, 0.0, 0.0, 0.0, 1.6170038961586075E9, 2021-03-29 10:44:56.158
2.0, -52039.0390625, -3637.321533203125, 187500.0, -63712.4609375, -12529.4482421875, -29767.962890625, 6034.45654296875, -3997.20703125, -187500.015625, -187500.015625, -187500.015625, -187500.015625, -187500.015625, -187500.015625, -130740.46875, -187500.015625, -0.3892319017834325, 0.8118937730482685, 0.3428762798355365, 192.0, 0.0, 0.0, 0.0, 0.0, 0.0, 0.0, 0.0, 0.0, 0.0, 1.6170038961586144E9, 2021-03-29 10:44:56.158
4.0, -52086.04296875, -3652.47607421875, 187500.0, -63706.55859375, -12519.1669921875, -29758.240234375, 6047.13037109375, -3983.237060546875, -187500.015625, -187500.015625, -187500.015625, -187500.015625, -187500.015625, -187500.015625, -130747.6875, -187500.015625, -0.3892319017834325, 0.8118937730482685, 0.3428762798355365, 192.0, 0.0, 0.0, 0.0, 0.0, 0.0, 0.0, 0.0, 0.0, 0.0, 1.617003896158622E9, 2021-03-29 10:44:56.158
6.0, -51794.2890625, -3652.85595703125, 187500.0, -63728.10546875, -12536.4892578125, -29772.27734375, 6022.05126953125, -3996.067138671875, -187500.015625, -187500.015625, -187500.015625, -187500.015625, -187500.015625, -187500.015625, -130746.9296875, -187500.015625, -0.3892319017834325, 0.8118937730482685, 0.3428762798355365, 192.0, 0.0, 0.0, 0.0, 0.0, 0.0, 0.0, 0.0, 0.0, 0.0, 1.6170038961586275E9, 2021-03-29 10:44:56.158
8.0, -50952.18359375, -3662.735595703125, 187500.0, -63729.984375, -12536.5341796875, -29771.115234375, 6009.958984375, -4003.599609375, -187500.015625, -187500.015625, -187500.015625, -187500.015625, -187500.015625, -187500.015625, -130756.3828125, -187500.015625, -0.3892319017834325, 0.8118937730482685, 0.3428762798355365, 192.0, 0.0, 0.0, 0.0, 0.0, 0.0, 0.0, 0.0, 0.0, 0.0, 1.6170038961586332E9, 2021-03-29 10:44:56.158
10.0, -51195.75390625, -3644.653076171875, 187500.0, -63714.00390625, -12521.24609375, -29751.802734375, 6038.0107421875, -3978.677490234375, -187500.015625, -187500.015625, -187500.015625, -187500.015625, -187500.015625, -187500.015625, -130756.1328125, -187500.015625, -0.38861595661376214, 0.8099469005908304, 0.3414381417059076, 192.0, 121.5, 112.0, 12.5, 32.0, 5.0, 80.0, 0.0, 0.0, 0.0, 1.6170038961586406E9, 2021-03-29 10:44:56.158
12.0, -50102.640625, -3663.540283203125, 187500.0, -63755.17578125, -12567.603515625, -29799.658203125, 5994.2236328125, -4027.001953125, -187500.015625, -187500.015625, -187500.015625, -187500.015625, -187500.015625, -187500.015625, -130761.5703125, -187500.015625, -0.38861595661376214, 0.8099469005908304, 0.3414381417059076, 192.0, 0.0, 0.0, 0.0, 0.0, 0.0, 0.0, 0.0, 0.0, 0.0, 1.6170038961586473E9, 2021-03-29 10:44:56.158
14.0, -49912.5625, -3653.750244140625, 187500.0, -63715.4765625, -12534.1875, -29760.384765625, 6029.91943359375, -3990.2109375, -187500.015625, -187500.015625, -187500.015625, -187500.015625, -187500.015625, -187500.015625, -130765.90625, -187500.015625, -0.38861595661376214, 0.8099469005908304, 0.3414381417059076, 192.0, 0.0, 0.0, 0.0, 0.0, 0.0, 0.0, 0.0, 0.0, 0.0, 1.6170038961586542E9, 2021-03-29 10:44:56.158
16.0, -49404.953125, -3635.578125, 187500.0, -63718.98828125, -12545.20703125, -29767.314453125, 6013.1552734375, -4002.90673828125, -187500.015625, -187500.015625, -187500.015625, -187500.015625, -187500.015625, -187500.015625, -130768.7890625, -187500.015625, -0.38861595661376214, 0.8099469005908304, 0.3414381417059076, 192.0, 0.0, 0.0, 0.0, 0.0, 0.0, 0.0, 0.0, 0.0, 0.0, 1.6170038961586597E9, 2021-03-29 10:44:56.158
18.0, -48549.7734375, -3656.7900390625, 187500.0, -63725.53515625, -12544.9384765625, -29777.685546875, 6015.12255859375, -4008.561767578125, -187500.015625, -187500.015625, -187500.015625, -187500.015625, -187500.015625, -187500.015625, -130777.859375, -187500.015625, -0.38861595661376214, 0.8099469005908304, 0.3414381417059076, 192.0, 0.0, 0.0, 0.0, 0.0, 0.0, 0.0, 0.0, 0.0, 0.0, 1.6170038961586869E9, 2021-03-29 10:44:56.158
20.0, -49177.14453125, -3624.5810546875, 187500.0, -63692.87890625, -12514.5625, -29744.26953125, 6041.27392578125, -3979.571533203125, -187500.015625, -187500.015625, -187500.015625, -187500.015625, -187500.015625, -187500.015625, -130775.6484375, -187500.015625, -0.39130799010860073, 0.8099734812898305, 0.3357190774094647, 192.0, 121.5, 88.0, 12.5, 40.0, 5.0, 40.0, 0.0, 0.0, 0.0, 1.6170038961586926E9, 2021-03-29 10:44:56.158
22.0, -48441.90625, -3649.27978515625, 187500.0, -63734.92578125, -12560.0703125, -29784.1015625, 6002.359375, -4025.727783203125, -187500.015625, -187500.015625, -187500.015625, -187500.015625, -187500.015625, -187500.015625, -130783.3125, -187500.015625, -0.39130799010860073, 0.8099734812898305, 0.3357190774094647, 192.0, 0.0, 0.0, 0.0, 0.0, 0.0, 0.0, 0.0, 0.0, 0.0, 1.617003896158698E9, 2021-03-29 10:44:56.158
24.0, -48590.03125, -3663.24951171875, 187500.0, -63717.9375, -12535.3046875, -29765.861328125, 6020.77734375, -4009.433349609375, -187500.015625, -187500.015625, -187500.015625, -187500.015625, -187500.015625, -187500.015625, -130787.359375, -187500.015625, -0.39130799010860073, 0.8099734812898305, 0.3357190774094647, 192.0, 0.0, 0.0, 0.0, 0.0, 0.0, 0.0, 0.0, 0.0, 0.0, 1.6170038961587036E9, 2021-03-29 10:44:56.158
26.0, -48316.9140625, -3636.47216796875, 187500.0, -63720.12890625, -12549.05078125, -29768.65625, 5991.5859375, -4012.741455078125, -187500.015625, -187500.015625, -187500.015625, -187500.015625, -187500.015625, -187500.015625, -130789.2421875, -187500.015625, -0.39130799010860073, 0.8099734812898305, 0.3357190774094647, 192.0, 0.0, 0.0, 0.0, 0.0, 0.0, 0.0, 0.0, 0.0, 0.0, 1.617003896158708E9, 2021-03-29 10:44:56.158
28.0, -46991.41015625, -3645.994140625, 187500.0, -63735.23828125, -12564.4072265625, -29787.453125, 5998.6044921875, -4033.70751953125, -187500.015625, -187500.015625, -187500.015625, -187500.015625, -187500.015625, -187500.015625, -130801.21875, -187500.015625, -0.39130799010860073, 0.8099734812898305, 0.3357190774094647, 192.0, 0.0, 0.0, 0.0, 0.0, 0.0, 0.0, 0.0, 0.0, 0.0, 1.6170038961587143E9, 2021-03-29 10:44:56.158
30.0, -46433.66796875, -3633.9912109375, 187500.0, -63738.546875, -12573.8388671875, -29793.15234375, 6002.51611328125, -4032.343994140625, -187500.015625, -187500.015625, -187500.015625, -187500.015625, -187500.015625, -187500.015625, -130803.34375, -187500.015625, -0.3876539967232304, 0.8139867499432398, 0.3378595404928717, 192.0, 122.0, 0.0, 12.5, 72.0, 5.0, 80.0, 0.0, 0.0, 0.0, 1.6170038961587205E9, 2021-03-29 10:44:56.158
32.0, -44770.8125, -3633.141845703125, 187500.0, -63754.078125, -12601.734375, -29813.068359375, 5971.9833984375, -4062.45166015625, -187500.015625, -187500.015625, -187500.015625, -187500.015625, -187500.015625, -187500.015625, -130813.6015625, -187500.015625, -0.3876539967232304, 0.8139867499432398, 0.3378595404928717, 192.0, 0.0, 0.0, 0.0, 0.0, 0.0, 0.0, 0.0, 0.0, 0.0, 1.6170038961587272E9, 2021-03-29 10:44:56.158
34.0, -44867.01171875, -3619.529541015625, 187500.0, -63694.890625, -12542.0771484375, -29755.021484375, 6025.7841796875, -3996.067138671875, -187500.015625, -187500.015625, -187500.015625, -187500.015625, -187500.015625, -187500.015625, -130822.4765625, -187500.015625, -0.3876539967232304, 0.8139867499432398, 0.3378595404928717, 192.0, 0.0, 0.0, 0.0, 0.0, 0.0, 0.0, 0.0, 0.0, 0.0, 1.6170038961587336E9, 2021-03-29 10:44:56.158
36.0, -45451.93359375, -3582.649169921875, 187500.0, -63677.3671875, -12531.3486328125, -29741.54296875, 6037.9658203125, -3982.208984375, -187500.015625, -187500.015625, -187500.015625, -187500.015625, -187500.015625, -187500.015625, -130820.9296875, -187500.015625, -0.3876539967232304, 0.8139867499432398, 0.3378595404928717, 192.0, 0.0, 0.0, 0.0, 0.0, 0.0, 0.0, 0.0, 0.0, 0.0, 1.617003896158739E9, 2021-03-29 10:44:56.158
38.0, -45811.91015625, -3602.72119140625, 187500.0, -63674.77734375, -12521.669921875, -29734.166015625, 6046.66064453125, -3979.12451171875, -187500.015625, -187500.015625, -187500.015625, -187500.015625, -187500.015625, -187500.015625, -130827.7734375, -187500.015625, -0.3876539967232304, 0.8139867499432398, 0.3378595404928717, 192.0, 0.0, 0.0, 0.0, 0.0, 0.0, 0.0, 0.0, 0.0, 0.0, 1.6170038961587443E9, 2021-03-29 10:44:56.158
40.0, -47684.09375, -3582.29150390625, 187500.0, -63647.59765625, -12484.6337890625, -29696.392578125, 6081.9765625, -3941.998291015625, -187500.015625, -187500.015625, -187500.015625, -187500.015625, -187500.015625, -187500.015625, -130820.9140625, -187500.015625, -0.3878270040836611, 0.8139933802168287, 0.34092977608769104, 192.0, 121.5, 112.0, 12.5, 56.0, 5.0, 96.0, 0.0, 0.0, 0.0, 1.6170038961587498E9, 2021-03-29 10:44:56.158
42.0, -47877.5234375, -3588.259521484375, 187500.0, -63672.5625, -12512.6845703125, -29717.626953125, 6051.86865234375, -3968.775634765625, -187500.015625, -187500.015625, -187500.015625, -187500.015625, -187500.015625, -187500.015625, -130823.703125, -187500.015625, -0.3878270040836611, 0.8139933802168287, 0.34092977608769104, 192.0, 0.0, 0.0, 0.0, 0.0, 0.0, 0.0, 0.0, 0.0, 0.0, 1.617003896158756E9, 2021-03-29 10:44:56.158
44.0, -48689.83203125, -3602.5869140625, 187500.0, -63654.390625, -12492.1435546875, -29699.142578125, 6067.82763671875, -3950.268310546875, -187500.015625, -187500.015625, -187500.015625, -187500.015625, -187500.015625, -187500.015625, -130828.2890625, -187500.015625, -0.3878270040836611, 0.8139933802168287, 0.34092977608769104, 192.0, 0.0, 0.0, 0.0, 0.0, 0.0, 0.0, 0.0, 0.0, 0.0, 1.6170038961587644E9, 2021-03-29 10:44:56.158
46.0, -49455.8046875, -3580.078857421875, 187500.0, -63643.83984375, -12492.7021484375, -29697.845703125, 6069.43701171875, -3946.759033203125, -187500.015625, -187500.015625, -187500.015625, -187500.015625, -187500.015625, -187500.015625, -130827.703125, -187500.015625, -0.3878270040836611, 0.8139933802168287, 0.34092977608769104, 192.0, 0.0, 0.0, 0.0, 0.0, 0.0, 0.0, 0.0, 0.0, 0.0, 1.6170038961587696E9, 2021-03-29 10:44:56.158
48.0, -49823.37890625, -3606.11865234375, 187500.0, -63655.640625, -12506.1357421875, -29714.921875, 6053.88037109375, -3964.23828125, -187500.015625, -187500.015625, -187500.015625, -187500.015625, -187500.015625, -187500.015625, -130835.796875, -187500.015625, -0.3878270040836611, 0.8139933802168287, 0.34092977608769104, 192.0, 0.0, 0.0, 0.0, 0.0, 0.0, 0.0, 0.0, 0.0, 0.0, 1.617003896158776E9, 2021-03-29 10:44:56.158
50.0, -51664.35546875, -3588.93017578125, 187500.0, -63629.37890625, -12478.8671875, -29683.47265625, 6086.5361328125, -3937.259765625, -187500.015625, -187500.015625, -187500.015625, -187500.015625, -187500.015625, -187500.015625, -130826.03125, -187500.015625, -0.38691350573731853, 0.816996716334458, 0.3414648918585428, 192.0, 121.5, 120.0, 12.5, 80.0, 5.0, 88.0, 0.0, 0.0, 0.0, 1.617003896158782E9, 2021-03-29 10:44:56.158
52.0, -52075.80859375, -3602.69873046875, 187500.0, -63658.68359375, -12509.8017578125, -29707.076171875, 6053.43310546875, -3968.12744140625, -187500.015625, -187500.015625, -187500.015625, -187500.015625, -187500.015625, -187500.015625, -130826.2109375, -187500.015625, -0.38691350573731853, 0.816996716334458, 0.3414648918585428, 192.0, 0.0, 0.0, 0.0, 0.0, 0.0, 0.0, 0.0, 0.0, 0.0, 1.6170038961587985E9, 2021-03-29 10:44:56.158
54.0, -53228.21875, -3620.8037109375, 187500.0, -63644.6015625, -12490.556640625, -29694.1796875, 6077.1259765625, -3956.90673828125, -187500.015625, -187500.015625, -187500.015625, -187500.015625, -187500.015625, -187500.015625, -130827.796875, -187500.015625, -0.38691350573731853, 0.816996716334458, 0.3414648918585428, 192.0, 0.0, 0.0, 0.0, 0.0, 0.0, 0.0, 0.0, 0.0, 0.0, 1.6170038961588056E9, 2021-03-29 10:44:56.158
56.0, -54088.6953125, -3619.57421875, 187500.0, -63667.0859375, -12516.2392578125, -29715.146484375, 6046.99609375, -3978.029296875, -187500.015625, -187500.015625, -187500.015625, -187500.015625, -187500.015625, -187500.015625, -130821.9609375, -187500.015625, -0.38691350573731853, 0.816996716334458, 0.3414648918585428, 192.0, 0.0, 0.0, 0.0, 0.0, 0.0, 0.0, 0.0, 0.0, 0.0, 1.6170038961588109E9, 2021-03-29 10:44:56.158
58.0, -54234.47265625, -3627.822021484375, 187500.0, -63665.34375, -12515.166015625, -29715.705078125, 6047.1748046875, -3975.5927734375, -187500.015625, -187500.015625, -187500.015625, -187500.015625, -187500.015625, -187500.015625, -130824.890625, -187500.015625, -0.38691350573731853, 0.816996716334458, 0.3414648918585428, 192.0, 0.0, 0.0, 0.0, 0.0, 0.0, 0.0, 0.0, 0.0, 0.0, 1.617003896158816E9, 2021-03-29 10:44:56.158
60.0, -55691.1796875, -3624.11181640625, 187500.0, -63655.328125, -12503.431640625, -29704.662109375, 6071.962890625, -3961.153564453125, -187500.015625, -187500.015625, -187500.015625, -187500.015625, -187500.015625, -187500.015625, -130820.953125, -187500.015625, -0.38645675656414724, 0.8174983674655536, 0.3437324537970845, 192.0, 121.5, 120.0, 12.5, 72.0, 5.0, 104.0, 0.0, 0.0, 0.0, 1.6170038961588223E9, 2021-03-29 10:44:56.158
62.0, -55756.73828125, -3626.4140625, 187500.0, -63679.3125, -12532.1083984375, -29732.244140625, 6032.3779296875, -3998.48095703125, -187500.015625, -187500.015625, -187500.015625, -187500.015625, -187500.015625, -187500.015625, -130819.390625, -187500.015625, -0.38645675656414724, 0.8174983674655536, 0.3437324537970845, 192.0, 0.0, 0.0, 0.0, 0.0, 0.0, 0.0, 0.0, 0.0, 0.0, 1.6170038961588268E9, 2021-03-29 10:44:56.158
64.0, -56773.49609375, -3633.320556640625, 187500.0, -63644.78125, -12501.486328125, -29693.642578125, 6055.6015625, -3967.166259765625, -187500.015625, -187500.015625, -187500.015625, -187500.015625, -187500.015625, -187500.015625, -130820.109375, -187500.015625, -0.38645675656414724, 0.8174983674655536, 0.3437324537970845, 192.0, 0.0, 0.0, 0.0, 0.0, 0.0, 0.0, 0.0, 0.0, 0.0, 1.617003896158832E9, 2021-03-29 10:44:56.158
66.0, -57519.10546875, -3642.7978515625, 187500.0, -63678.95703125, -12530.72265625, -29724.623046875, 6040.1787109375, -4000.157470703125, -187500.015625, -187500.015625, -187500.015625, -187500.015625, -187500.015625, -187500.015625, -130814.140625, -187500.015625, -0.38645675656414724, 0.8174983674655536, 0.3437324537970845, 192.0, 0.0, 0.0, 0.0, 0.0, 0.0, 0.0, 0.0, 0.0, 0.0, 1.6170038961588376E9, 2021-03-29 10:44:56.158
68.0, -57484.01171875, -3651.514892578125, 187500.0, -63678.1953125, -12532.623046875, -29720.0859375, 6036.28955078125, -3997.072998046875, -187500.015625, -187500.015625, -187500.015625, -187500.015625, -187500.015625, -187500.015625, -130813.671875, -187500.015625, -0.38645675656414724, 0.8174983674655536, 0.3437324537970845, 192.0, 0.0, 0.0, 0.0, 0.0, 0.0, 0.0, 0.0, 0.0, 0.0, 1.6170038961588464E9, 2021-03-29 10:44:56.158
70.0, -58751.6484375, -3629.632568359375, 187500.0, -63659.5546875, -12509.421875, -29700.751953125, 6062.30712890625, -3974.810546875, -187500.015625, -187500.015625, -187500.015625, -187500.015625, -187500.015625, -187500.015625, -130808.1015625, -187500.015625, -0.3862283819775616, 0.8187492099588205, 0.34486623476635536, 192.0, 121.5, 120.0, 12.5, 80.0, 5.0, 104.0, 0.0, 0.0, 0.0, 1.6170038961588533E9, 2021-03-29 10:44:56.158
72.0, -58492.63671875, -3640.428466796875, 187500.0, -63696.1875, -12543.708984375, -29739.0625, 6026.767578125, -4010.461669921875, -187500.015625, -187500.015625, -187500.015625, -187500.015625, -187500.015625, -187500.015625, -130808.75, -187500.015625, -0.3862283819775616, 0.8187492099588205, 0.34486623476635536, 192.0, 0.0, 0.0, 0.0, 0.0, 0.0, 0.0, 0.0, 0.0, 0.0, 1.6170038961588583E9, 2021-03-29 10:44:56.158
74.0, -59090.58984375, -3669.508056640625, 187500.0, -63691.13671875, -12527.9736328125, -29732.53515625, 6040.31298828125, -4001.833740234375, -187500.015625, -187500.015625, -187500.015625, -187500.015625, -187500.015625, -187500.015625, -130809.6875, -187500.015625, -0.3862283819775616, 0.8187492099588205, 0.34486623476635536, 192.0, 0.0, 0.0, 0.0, 0.0, 0.0, 0.0, 0.0, 0.0, 0.0, 1.617003896158864E9, 2021-03-29 10:44:56.158
76.0, -59480.359375, -3672.68212890625, 187500.0, -63719.5234375, -12559.7578125, -29761.7265625, 6000.05712890625, -4036.27783203125, -187500.015625, -187500.015625, -187500.015625, -187500.015625, -187500.015625, -187500.015625, -130798.1796875, -187500.015625, -0.3862283819775616, 0.8187492099588205, 0.34486623476635536, 192.0, 0.0, 0.0, 0.0, 0.0, 0.0, 0.0, 0.0, 0.0, 0.0, 1.6170038961588695E9, 2021-03-29 10:44:56.158
78.0, -59036.56640625, -3669.08349609375, 187500.0, -63707.65625, -12562.9990234375, -29755.3125, 6000.54931640625, -4031.047607421875, -187500.015625, -187500.015625, -187500.015625, -187500.015625, -187500.015625, -187500.015625, -130798.421875, -187500.015625, -0.3862283819775616, 0.8187492099588205, 0.34486623476635536, 192.0, 0.0, 0.0, 0.0, 0.0, 0.0, 0.0, 0.0, 0.0, 0.0, 1.617003896158874E9, 2021-03-29 10:44:56.158
80.0, -59872.67578125, -3654.599609375, 187500.0, -63688.92578125, -12544.6259765625, -29737.85546875, 6026.5439453125, -4014.9765625, -187500.015625, -187500.015625, -187500.015625, -187500.015625, -187500.015625, -187500.015625, -130792.4375, -187500.015625, -0.3861141946842688, 0.8183746142777348, 0.3454331252509908, 192.0, 121.5, 120.0, 12.5, 72.0, 5.0, 104.0, 0.0, 0.0, 0.0, 1.6170038961588795E9, 2021-03-29 10:44:56.158
82.0, -59230.17578125, -3678.24755859375, 187500.0, -63736.62109375, -12596.50390625, -29783.4296875, 5971.2236328125, -4064.955078125, -187500.015625, -187500.015625, -187500.015625, -187500.015625, -187500.015625, -187500.015625, -130790.3984375, -187500.015625, -0.3861141946842688, 0.8183746142777348, 0.3454331252509908, 192.0, 0.0, 0.0, 0.0, 0.0, 0.0, 0.0, 0.0, 0.0, 0.0, 1.617003896158884E9, 2021-03-29 10:44:56.158
84.0, -59470.234375, -3678.962890625, 187500.0, -63704.01171875, -12565.7705078125, -29748.986328125, 6005.7568359375, -4034.243896484375, -187500.015625, -187500.015625, -187500.015625, -187500.015625, -187500.015625, -187500.015625, -130790.046875, -187500.015625, -0.3861141946842688, 0.8183746142777348, 0.3454331252509908, 192.0, 0.0, 0.0, 0.0, 0.0, 0.0, 0.0, 0.0, 0.0, 0.0, 1.6170038961588917E9, 2021-03-29 10:44:56.158
86.0, -59468.3125, -3675.498291015625, 187500.0, -63725.19921875, -12584.7919921875, -29766.46484375, 5986.10986328125, -4055.343994140625, -187500.015625, -187500.015625, -187500.015625, -187500.015625, -187500.015625, -187500.015625, -130783.875, -187500.015625, -0.3861141946842688, 0.8183746142777348, 0.3454331252509908, 192.0, 0.0, 0.0, 0.0, 0.0, 0.0, 0.0, 0.0, 0.0, 0.0, 1.617003896158901E9, 2021-03-29 10:44:56.158
88.0, -58655.4921875, -3684.23779296875, 187500.0, -63732.80078125, -12585.5517578125, -29765.771484375, 5985.3720703125, -4055.58984375, -187500.015625, -187500.015625, -187500.015625, -187500.015625, -187500.015625, -187500.015625, -130786.265625, -187500.015625, -0.3861141946842688, 0.8183746142777348, 0.3454331252509908, 192.0, 0.0, 0.0, 0.0, 0.0, 0.0, 0.0, 0.0, 0.0, 0.0, 1.6170038961589062E9, 2021-03-29 10:44:56.158
90.0, -59170.18359375, -3683.25439453125, 187500.0, -63729.8515625, -12571.42578125, -29750.796875, 5987.11572265625, -4043.720947265625, -187500.015625, -187500.015625, -187500.015625, -187500.015625, -187500.015625, -187500.015625, -130781.6640625, -187500.015625, -0.3840571118856677, 0.8131873212055636, 0.34271656441363474, 192.0, 122.0, 8.0, 12.5, 32.0, 5.0, 80.0, 0.0, 0.0, 0.0, 1.617003896158914E9, 2021-03-29 10:44:56.158
92.0, -58312.14453125, -3694.609130859375, 187500.0, -63765.97265625, -12609.04296875, -29779.720703125, 5948.31298828125, -4080.7578125, -187500.015625, -187500.015625, -187500.015625, -187500.015625, -187500.015625, -187500.015625, -130782.5546875, -187500.015625, -0.3840571118856677, 0.8131873212055636, 0.34271656441363474, 192.0, 0.0, 0.0, 0.0, 0.0, 0.0, 0.0, 0.0, 0.0, 0.0, 1.6170038961589181E9, 2021-03-29 10:44:56.158
94.0, -58319.0078125, -3706.075439453125, 187500.0, -63751.5546875, -12587.697265625, -29764.431640625, 5979.15869140625, -4066.743408203125, -187500.015625, -187500.015625, -187500.015625, -187500.015625, -187500.015625, -187500.015625, -130784.2578125, -187500.015625, -0.3840571118856677, 0.8131873212055636, 0.34271656441363474, 192.0, 0.0, 0.0, 0.0, 0.0, 0.0, 0.0, 0.0, 0.0, 0.0, 1.617003896158923E9, 2021-03-29 10:44:56.158
96.0, -58239.234375, -3681.533447265625, 187500.0, -63746.8828125, -12589.552734375, -29764.20703125, 5982.10888671875, -4060.328369140625, -187500.015625, -187500.015625, -187500.015625, -187500.015625, -187500.015625, -187500.015625, -130777.7734375, -187500.015625, -0.3840571118856677, 0.8131873212055636, 0.34271656441363474, 192.0, 0.0, 0.0, 0.0, 0.0, 0.0, 0.0, 0.0, 0.0, 0.0, 1.6170038961589284E9, 2021-03-29 10:44:56.158
98.0, -57382.73828125, -3685.5791015625, 187500.0, -63742.5234375, -12586.04296875, -29755.71484375, 5984.72412109375, -4056.953125, -187500.015625, -187500.015625, -187500.015625, -187500.015625, -187500.015625, -187500.015625, -130783.625, -187500.015625, -0.3840571118856677, 0.8131873212055636, 0.34271656441363474, 192.0, 0.0, 0.0, 0.0, 0.0, 0.0, 0.0, 0.0, 0.0, 0.0, 1.6170038961589336E9, 2021-03-29 10:44:56.158
100.0, -57857.66796875, -3679.030029296875, 187500.0, -63739.10546875, -12582.556640625, -29753.658203125, 5991.94384765625, -4052.9970703125, -187500.015625, -187500.015625, -187500.015625, -187500.015625, -187500.015625, -187500.015625, -130778.7578125, -187500.015625, -0.3830285704863672, 0.8135936658479905, 0.3453582921011884, 192.0, 122.0, 8.0, 12.5, 56.0, 5.0, 112.0, 0.0, 0.0, 0.0, 1.6170038961589386E9, 2021-03-29 10:44:56.158
102.0, -56947.52734375, -3687.724853515625, 187500.0, -63772.83203125, -12625.44921875, -29792.4375, 5941.89794921875, -4089.162109375, -187500.015625, -187500.015625, -187500.015625, -187500.015625, -187500.015625, -187500.015625, -130777.3046875, -187500.015625, -0.3830285704863672, 0.8135936658479905, 0.3453582921011884, 192.0, 0.0, 0.0, 0.0, 0.0, 0.0, 0.0, 0.0, 0.0, 0.0, 1.6170038961589448E9, 2021-03-29 10:44:56.158
104.0, -56937.87109375, -3684.48388671875, 187500.0, -63745.16015625, -12593.5537109375, -29766.8671875, 5985.6181640625, -4062.541259765625, -187500.015625, -187500.015625, -187500.015625, -187500.015625, -187500.015625, -187500.015625, -130779.7421875, -187500.015625, -0.3830285704863672, 0.8135936658479905, 0.3453582921011884, 192.0, 0.0, 0.0, 0.0, 0.0, 0.0, 0.0, 0.0, 0.0, 0.0, 1.617003896638482E9, 2021-03-29 10:44:56.638
106.0, -56882.37109375, -3662.646240234375, 187500.0, -63750.546875, -12600.1025390625, -29768.9453125, 5978.2197265625, -4070.38671875, -187500.015625, -187500.015625, -187500.015625, -187500.015625, -187500.015625, -187500.015625, -130775.828125, -187500.015625, -0.3830285704863672, 0.8135936658479905, 0.3453582921011884, 192.0, 0.0, 0.0, 0.0, 0.0, 0.0, 0.0, 0.0, 0.0, 0.0, 1.6170038966386352E9, 2021-03-29 10:44:56.638
108.0, -56046.83984375, -3668.14453125, 187500.0, -63750.7734375, -12601.33203125, -29758.708984375, 5959.35498046875, -4069.626708984375, -187500.015625, -187500.015625, -187500.015625, -187500.015625, -187500.015625, -187500.015625, -130780.25, -187500.015625, -0.3830285704863672, 0.8135936658479905, 0.3453582921011884, 192.0, 0.0, 0.0, 0.0, 0.0, 0.0, 0.0, 0.0, 0.0, 0.0, 1.6170038966386404E9, 2021-03-29 10:44:56.638
110.0, -56627.73828125, -3653.302978515625, 187500.0, -63732.890625, -12581.7294921875, -29732.37890625, 5988.814453125, -4046.09033203125, -187500.015625, -187500.015625, -187500.015625, -187500.015625, -187500.015625, -187500.015625, -130774.171875, -187500.015625, -0.38351428691211364, 0.813796838169204, 0.3446791518918494, 192.0, 122.0, 0.0, 12.5, 56.0, 5.0, 96.0, 0.0, 0.0, 0.0, 1.617003896638646E9, 2021-03-29 10:44:56.638
112.0, -55816.21484375, -3670.9609375, 187500.0, -63777.90625, -12619.056640625, -29768.142578125, 5960.6064453125, -4082.926025390625, -187500.015625, -187500.015625, -187500.015625, -187500.015625, -187500.015625, -187500.015625, -130772.203125, -187500.015625, -0.38351428691211364, 0.813796838169204, 0.3446791518918494, 192.0, 0.0, 0.0, 0.0, 0.0, 0.0, 0.0, 0.0, 0.0, 0.0, 1.6170038966386511E9, 2021-03-29 10:44:56.638
114.0, -55900.1015625, -3672.07861328125, 187500.0, -63751.44140625, -12582.109375, -29738.66015625, 5992.6591796875, -4051.141845703125, -187500.015625, -187500.015625, -187500.015625, -187500.015625, -187500.015625, -187500.015625, -130773.2578125, -187500.015625, -0.38351428691211364, 0.813796838169204, 0.3446791518918494, 192.0, 0.0, 0.0, 0.0, 0.0, 0.0, 0.0, 0.0, 0.0, 0.0, 1.6170038966386569E9, 2021-03-29 10:44:56.638
116.0, -55954.83984375, -3663.49560546875, 187500.0, -63769.90625, -12597.3984375, -29751.69140625, 5967.177734375, -4066.430419921875, -187500.015625, -187500.015625, -187500.015625, -187500.015625, -187500.015625, -187500.015625, -130768.8125, -187500.015625, -0.38351428691211364, 0.813796838169204, 0.3446791518918494, 192.0, 0.0, 0.0, 0.0, 0.0, 0.0, 0.0, 0.0, 0.0, 0.0, 1.617003896638662E9, 2021-03-29 10:44:56.638
118.0, -55183.48046875, -3673.5537109375, 187500.0, -63780.27734375, -12602.3154296875, -29759.37890625, 5967.267578125, -4075.706298828125, -187500.015625, -187500.015625, -187500.015625, -187500.015625, -187500.015625, -187500.015625, -130772.2734375, -187500.015625, -0.38351428691211364, 0.813796838169204, 0.3446791518918494, 192.0, 0.0, 0.0, 0.0, 0.0, 0.0, 0.0, 0.0, 0.0, 0.0, 1.6170038966386673E9, 2021-03-29 10:44:56.638
120.0, -55837.5625, -3661.46142578125, 187500.0, -63763.890625, -12580.4326171875, -29734.189453125, 5981.32666015625, -4050.203125, -187500.015625, -187500.015625, -187500.015625, -187500.015625, -187500.015625, -187500.015625, -130766.6640625, -187500.015625, -0.3837571451249869, 0.8138984243298107, 0.3373395825024356, 192.0, 122.0, 0.0, 12.5, 56.0, 5.0, 40.0, 0.0, 0.0, 0.0, 1.6170038966386783E9, 2021-03-29 10:44:56.638
122.0, -55116.984375, -3675.587890625, 187500.0, -63800.8828125, -12614.162109375, -29767.783203125, 5949.8779296875, -4089.922119140625, -187500.015625, -187500.015625, -187500.015625, -187500.015625, -187500.015625, -187500.015625, -130766.0859375, -187500.015625, -0.3837571451249869, 0.8138984243298107, 0.3373395825024356, 192.0, 0.0, 0.0, 0.0, 0.0, 0.0, 0.0, 0.0, 0.0, 0.0, 1.6170038966386836E9, 2021-03-29 10:44:56.638
124.0, -55225.703125, -3677.06298828125, 187500.0, -63771.671875, -12583.71875, -29737.5859375, 5988.4345703125, -4069.47021484375, -187500.015625, -187500.015625, -187500.015625, -187500.015625, -187500.015625, -187500.015625, -130768.8125, -187500.015625, -0.3837571451249869, 0.8138984243298107, 0.3373395825024356, 192.0, 0.0, 0.0, 0.0, 0.0, 0.0, 0.0, 0.0, 0.0, 0.0, 1.6170038966386888E9, 2021-03-29 10:44:56.638
126.0, -55318.5546875, -3666.7587890625, 187500.0, -63786.9609375, -12605.19921875, -29750.529296875, 5959.51123046875, -4076.399169921875, -187500.015625, -187500.015625, -187500.015625, -187500.015625, -187500.015625, -187500.015625, -130762.953125, -187500.015625, -0.3837571451249869, 0.8138984243298107, 0.3373395825024356, 192.0, 0.0, 0.0, 0.0, 0.0, 0.0, 0.0, 0.0, 0.0, 0.0, 1.6170038966386943E9, 2021-03-29 10:44:56.638
128.0, -54571.625, -3674.626708984375, 187500.0, -63784.8125, -12603.9697265625, -29746.70703125, 5957.54443359375, -4076.131103515625, -187500.015625, -187500.015625, -187500.015625, -187500.015625, -187500.015625, -187500.015625, -130762.7109375, -187500.015625, -0.3837571451249869, 0.8138984243298107, 0.3373395825024356, 192.0, 0.0, 0.0, 0.0, 0.0, 0.0, 0.0, 0.0, 0.0, 0.0, 1.6170038966386993E9, 2021-03-29 10:44:56.638
130.0, -55236.390625, -3661.1708984375, 187500.0, -63763.9375, -12576.8125, -29721.783203125, 5975.26904296875, -4055.3662109375, -187500.015625, -187500.015625, -187500.015625, -187500.015625, -187500.015625, -187500.015625, -130759.8203125, -187500.015625, -0.3818785850794688, 0.818949242444065, 0.34166979911903095, 192.0, 122.0, 16.0, 12.5, 96.0, 5.0, 104.0, 0.0, 0.0, 0.0, 1.6170038966387043E9, 2021-03-29 10:44:56.638
132.0, -54568.65234375, -3667.09423828125, 187500.0, -63794.06640625, -12608.57421875, -29751.310546875, 5940.04296875, -4086.07763671875, -187500.015625, -187500.015625, -187500.015625, -187500.015625, -187500.015625, -187500.015625, -130759.9375, -187500.015625, -0.3818785850794688, 0.818949242444065, 0.34166979911903095, 192.0, 0.0, 0.0, 0.0, 0.0, 0.0, 0.0, 0.0, 0.0, 0.0, 1.6170038966387093E9, 2021-03-29 10:44:56.638
134.0, -54697.17578125, -3679.96875, 187500.0, -63778.8671875, -12590.9384765625, -29730.814453125, 5965.54638671875, -4066.07275390625, -187500.015625, -187500.015625, -187500.015625, -187500.015625, -187500.015625, -187500.015625, -130762.6171875, -187500.015625, -0.3818785850794688, 0.818949242444065, 0.34166979911903095, 192.0, 0.0, 0.0, 0.0, 0.0, 0.0, 0.0, 0.0, 0.0, 0.0, 1.617003896638714E9, 2021-03-29 10:44:56.638
136.0, -54873.3515625, -3649.950439453125, 187500.0, -63766.5078125, -12580.8349609375, -29720.62109375, 5975.0458984375, -4056.126220703125, -187500.015625, -187500.015625, -187500.015625, -187500.015625, -187500.015625, -187500.015625, -130756.6015625, -187500.015625, -0.3818785850794688, 0.818949242444065, 0.34166979911903095, 192.0, 0.0, 0.0, 0.0, 0.0, 0.0, 0.0, 0.0, 0.0, 0.0, 1.617003896638719E9, 2021-03-29 10:44:56.638
138.0, -54180.625, -3671.25146484375, 187500.0, -63780.56640625, -12598.4931640625, -29734.3671875, 5951.55419921875, -4076.935791015625, -187500.015625, -187500.015625, -187500.015625, -187500.015625, -187500.015625, -187500.015625, -130761.6796875, -187500.015625, -0.3818785850794688, 0.818949242444065, 0.34166979911903095, 192.0, 0.0, 0.0, 0.0, 0.0, 0.0, 0.0, 0.0, 0.0, 0.0, 1.6170038966387236E9, 2021-03-29 10:44:56.638
140.0, -54901.11328125, -3643.87060546875, 187500.0, -63739.68359375, -12561.970703125, -29691.140625, 5992.2568359375, -4034.26611328125, -187500.015625, -187500.015625, -187500.015625, -187500.015625, -187500.015625, -187500.015625, -130755.21875, -187500.015625, -0.38193930708326773, 0.8194746474480762, 0.34183490337421274, 192.0, 122.0, 8.0, 12.5, 80.0, 5.0, 88.0, 0.0, 0.0, 0.0, 1.6170038966387281E9, 2021-03-29 10:44:56.638
142.0, -54304.859375, -3641.322509765625, 187500.0, -63758.59375, -12581.953125, -29712.0390625, 5975.42578125, -4050.940673828125, -187500.015625, -187500.015625, -187500.015625, -187500.015625, -187500.015625, -187500.015625, -130755.6875, -187500.015625, -0.38193930708326773, 0.8194746474480762, 0.34183490337421274, 192.0, 0.0, 0.0, 0.0, 0.0, 0.0, 0.0, 0.0, 0.0, 0.0, 1.617003896638733E9, 2021-03-29 10:44:56.638
144.0, -54402.87109375, -3651.69384765625, 187500.0, -63742.12109375, -12567.0439453125, -29700.37109375, 5983.2490234375, -4039.3623046875, -187500.015625, -187500.015625, -187500.015625, -187500.015625, -187500.015625, -187500.015625, -130758.796875, -187500.015625, -0.38193930708326773, 0.8194746474480762, 0.34183490337421274, 192.0, 0.0, 0.0, 0.0, 0.0, 0.0, 0.0, 0.0, 0.0, 0.0, 1.6170038966387377E9, 2021-03-29 10:44:56.638
146.0, -54559.5546875, -3635.26513671875, 187500.0, -63741.47265625, -12574.5546875, -29702.94140625, 5977.19140625, -4045.88916015625, -187500.015625, -187500.015625, -187500.015625, -187500.015625, -187500.015625, -187500.015625, -130751.21875, -187500.015625, -0.38193930708326773, 0.8194746474480762, 0.34183490337421274, 192.0, 0.0, 0.0, 0.0, 0.0, 0.0, 0.0, 0.0, 0.0, 0.0, 1.6170038966387424E9, 2021-03-29 10:44:56.638
148.0, -53823.17578125, -3647.69287109375, 187500.0, -63747.46484375, -12584.4560546875, -29711.45703125, 5958.1923828125, -4062.630615234375, -187500.015625, -187500.015625, -187500.015625, -187500.015625, -187500.015625, -187500.015625, -130754.1875, -187500.015625, -0.38193930708326773, 0.8194746474480762, 0.34183490337421274, 192.0, 0.0, 0.0, 0.0, 0.0, 0.0, 0.0, 0.0, 0.0, 0.0, 1.6170038966387472E9, 2021-03-29 10:44:56.638
150.0, -54484.69921875, -3625.09521484375, 187500.0, -63714.47265625, -12554.5498046875, -29673.4375, 5983.47216796875, -4029.237060546875, -187500.015625, -187500.015625, -187500.015625, -187500.015625, -187500.015625, -187500.015625, -130747.0859375, -187500.015625, -0.38396965723712184, 0.8197373499500817, 0.34691746563459325, 192.0, 121.5, 120.0, 12.5, 80.0, 5.5, 0.0, 0.0, 0.0, 0.0, 1.617003896638752E9, 2021-03-29 10:44:56.638
152.0, -53832.296875, -3636.2041015625, 187500.0, -63747.796875, -12588.3681640625, -29705.265625, 5955.51025390625, -4073.47119140625, -187500.015625, -187500.015625, -187500.015625, -187500.015625, -187500.015625, -187500.015625, -130748.4453125, -187500.015625, -0.38396965723712184, 0.8197373499500817, 0.34691746563459325, 192.0, 0.0, 0.0, 0.0, 0.0, 0.0, 0.0, 0.0, 0.0, 0.0, 1.6170038966387568E9, 2021-03-29 10:44:56.638
154.0, -53928.58984375, -3624.67041015625, 187500.0, -63705.5078125, -12549.7216796875, -29661.3671875, 5996.74951171875, -4023.649169921875, -187500.015625, -187500.015625, -187500.015625, -187500.015625, -187500.015625, -187500.015625, -130749.40625, -187500.015625, -0.38396965723712184, 0.8197373499500817, 0.34691746563459325, 192.0, 0.0, 0.0, 0.0, 0.0, 0.0, 0.0, 0.0, 0.0, 0.0, 1.617003896638765E9, 2021-03-29 10:44:56.638
156.0, -54094.484375, -3622.79296875, 187500.0, -63722.00390625, -12567.0439453125, -29673.01171875, 5981.5947265625, -4036.747314453125, -187500.015625, -187500.015625, -187500.015625, -187500.015625, -187500.015625, -187500.015625, -130744.046875, -187500.015625, -0.38396965723712184, 0.8197373499500817, 0.34691746563459325, 192.0, 0.0, 0.0, 0.0, 0.0, 0.0, 0.0, 0.0, 0.0, 0.0, 1.61700389663877E9, 2021-03-29 10:44:56.638
158.0, -53357.76953125, -3650.5986328125, 187500.0, -63740.7578125, -12583.3837890625, -29693.822265625, 5969.2568359375, -4056.304931640625, -187500.015625, -187500.015625, -187500.015625, -187500.015625, -187500.015625, -187500.015625, -130746.6796875, -187500.015625, -0.38396965723712184, 0.8197373499500817, 0.34691746563459325, 192.0, 0.0, 0.0, 0.0, 0.0, 0.0, 0.0, 0.0, 0.0, 0.0, 1.617003896638775E9, 2021-03-29 10:44:56.638
160.0, -54016.18359375, -3637.634521484375, 187500.0, -63710.828125, -12550.5263671875, -29665.97265625, 5998.93994140625, -4022.71044921875, -187500.015625, -187500.015625, -187500.015625, -187500.015625, -187500.015625, -187500.015625, -130742.34375, -187500.015625, -0.383984830287491, 0.8168686802202496, 0.3444587366319939, 192.0, 122.0, 0.0, 12.5, 56.0, 5.0, 88.0, 0.0, 0.0, 0.0, 1.6170038966387799E9, 2021-03-29 10:44:56.638
162.0, -53422.1875, -3632.538330078125, 187500.0, -63730.8125, -12578.0634765625, -29689.53125, 5965.36767578125, -4050.9853515625, -187500.015625, -187500.015625, -187500.015625, -187500.015625, -187500.015625, -187500.015625, -130741.984375, -187500.015625, -0.383984830287491, 0.8168686802202496, 0.3444587366319939, 192.0, 0.0, 0.0, 0.0, 0.0, 0.0, 0.0, 0.0, 0.0, 0.0, 1.617003896638785E9, 2021-03-29 10:44:56.638
164.0, -53514.65625, -3631.26416015625, 187500.0, -63709.8671875, -12559.2880859375, -29682.154296875, 5972.29638671875, -4044.436279296875, -187500.015625, -187500.015625, -187500.015625, -187500.015625, -187500.015625, -187500.015625, -130743.0859375, -187500.015625, -0.383984830287491, 0.8168686802202496, 0.3444587366319939, 192.0, 0.0, 0.0, 0.0, 0.0, 0.0, 0.0, 0.0, 0.0, 0.0, 1.61700389663879E9, 2021-03-29 10:44:56.638
166.0, -53693.26953125, -3606.11865234375, 187500.0, -63710.3359375, -12572.140625, -29692.66015625, 5969.30126953125, -4051.633544921875, -187500.015625, -187500.015625, -187500.015625, -187500.015625, -187500.015625, -187500.015625, -130737.359375, -187500.015625, -0.383984830287491, 0.8168686802202496, 0.3444587366319939, 192.0, 0.0, 0.0, 0.0, 0.0, 0.0, 0.0, 0.0, 0.0, 0.0, 1.6170038966387944E9, 2021-03-29 10:44:56.638
168.0, -53007.13671875, -3615.148681640625, 187500.0, -63714.29296875, -12580.857421875, -29703.8359375, 5961.791015625, -4064.731689453125, -187500.015625, -187500.015625, -187500.015625, -187500.015625, -187500.015625, -187500.015625, -130741.3203125, -187500.015625, -0.383984830287491, 0.8168686802202496, 0.3444587366319939, 192.0, 0.0, 0.0, 0.0, 0.0, 0.0, 0.0, 0.0, 0.0, 0.0, 1.6170038966387994E9, 2021-03-29 10:44:56.638
170.0, -53681.51171875, -3602.475341796875, 187500.0, -63684.58984375, -12557.232421875, -29677.392578125, 5979.51611328125, -4042.08935546875, -187500.015625, -187500.015625, -187500.015625, -187500.015625, -187500.015625, -187500.015625, -130737.09375, -187500.015625, -0.3869924228923493, 0.8174343494084494, 0.34522937618381005, 192.0, 121.5, 104.0, 12.5, 72.0, 5.0, 104.0, 0.0, 0.0, 0.0, 1.6170038966388042E9, 2021-03-29 10:44:56.638
172.0, -53120.52734375, -3605.135009765625, 187500.0, -63698.0, -12581.751953125, -29689.77734375, 5960.0478515625, -4062.04931640625, -187500.015625, -187500.015625, -187500.015625, -187500.015625, -187500.015625, -187500.015625, -130735.6640625, -187500.015625, -0.3869924228923493, 0.8174343494084494, 0.34522937618381005, 192.0, 0.0, 0.0, 0.0, 0.0, 0.0, 0.0, 0.0, 0.0, 0.0, 1.6170038966388092E9, 2021-03-29 10:44:56.638
174.0, -53232.77734375, -3620.71435546875, 187500.0, -63678.10546875, -12561.03125, -29660.8984375, 5977.70556640625, -4034.847412109375, -187500.015625, -187500.015625, -187500.015625, -187500.015625, -187500.015625, -187500.015625, -130740.3984375, -187500.015625, -0.3869924228923493, 0.8174343494084494, 0.34522937618381005, 192.0, 0.0, 0.0, 0.0, 0.0, 0.0, 0.0, 0.0, 0.0, 0.0, 1.617003896638814E9, 2021-03-29 10:44:56.638
176.0, -53445.27734375, -3616.69091796875, 187500.0, -63696.58984375, -12577.1025390625, -29665.48046875, 5965.68017578125, -4044.413818359375, -187500.015625, -187500.015625, -187500.015625, -187500.015625, -187500.015625, -187500.015625, -130733.1171875, -187500.015625, -0.3869924228923493, 0.8174343494084494, 0.34522937618381005, 192.0, 0.0, 0.0, 0.0, 0.0, 0.0, 0.0, 0.0, 0.0, 0.0, 1.617003896638819E9, 2021-03-29 10:44:56.638
178.0, -52746.8515625, -3635.510986328125, 187500.0, -63710.24609375, -12579.2255859375, -29674.8671875, 5961.4560546875, -4060.3955078125, -187500.015625, -187500.015625, -187500.015625, -187500.015625, -187500.015625, -187500.015625, -130732.328125, -187500.015625, -0.3869924228923493, 0.8174343494084494, 0.34522937618381005, 192.0, 0.0, 0.0, 0.0, 0.0, 0.0, 0.0, 0.0, 0.0, 0.0, 1.617003896638824E9, 2021-03-29 10:44:56.638
180.0, -53452.02734375, -3618.50146484375, 187500.0, -63681.30078125, -12547.375, -29647.28515625, 5991.7646484375, -4025.146728515625, -187500.015625, -187500.015625, -187500.015625, -187500.015625, -187500.015625, -187500.015625, -130727.28125, -187500.015625, -0.39049622324789435, 0.8177171840025492, 0.347614700012834, 192.0, 121.5, 88.0, 12.5, 72.0, 5.0, 120.0, 0.0, 0.0, 0.0, 1.6170038966388288E9, 2021-03-29 10:44:56.638
182.0, -52885.9453125, -3619.350830078125, 187500.0, -63706.73828125, -12580.4775390625, -29680.947265625, 5960.0703125, -4058.741455078125, -187500.015625, -187500.015625, -187500.015625, -187500.015625, -187500.015625, -187500.015625, -130726.40625, -187500.015625, -0.39049622324789435, 0.8177171840025492, 0.347614700012834, 192.0, 0.0, 0.0, 0.0, 0.0, 0.0, 0.0, 0.0, 0.0, 0.0, 1.6170038966388335E9, 2021-03-29 10:44:56.638
184.0, -52986.3046875, -3626.816162109375, 187500.0, -63682.1953125, -12552.91796875, -29665.189453125, 5985.50634765625, -4041.329345703125, -187500.015625, -187500.015625, -187500.015625, -187500.015625, -187500.015625, -187500.015625, -130726.6328125, -187500.015625, -0.39049622324789435, 0.8177171840025492, 0.347614700012834, 192.0, 0.0, 0.0, 0.0, 0.0, 0.0, 0.0, 0.0, 0.0, 0.0, 1.6170038966388383E9, 2021-03-29 10:44:56.638
186.0, -53204.68359375, -3621.98828125, 187500.0, -63694.15625, -12571.3134765625, -29679.44921875, 5941.2724609375, -4061.9599609375, -187500.015625, -187500.015625, -187500.015625, -187500.015625, -187500.015625, -187500.015625, -130718.5859375, -187500.015625, -0.39049622324789435, 0.8177171840025492, 0.347614700012834, 192.0, 0.0, 0.0, 0.0, 0.0, 0.0, 0.0, 0.0, 0.0, 0.0, 1.6170038966388433E9, 2021-03-29 10:44:56.638
188.0, -52502.01171875, -3632.828857421875, 187500.0, -63704.34765625, -12581.6845703125, -29686.625, 5961.9921875, -4061.647216796875, -187500.015625, -187500.015625, -187500.015625, -187500.015625, -187500.015625, -187500.015625, -130720.7734375, -187500.015625, -0.39049622324789435, 0.8177171840025492, 0.347614700012834, 192.0, 0.0, 0.0, 0.0, 0.0, 0.0, 0.0, 0.0, 0.0, 0.0, 1.6170038966388512E9, 2021-03-29 10:44:56.638
190.0, -53182.8671875, -3619.30615234375, 187500.0, -63691.42578125, -12564.9208984375, -29667.625, 5982.17578125, -4048.437255859375, -187500.015625, -187500.015625, -187500.015625, -187500.015625, -187500.015625, -187500.015625, -130716.640625, -187500.015625, -0.3862481261674805, 0.819858605352715, 0.35280735513241646, 192.0, 122.0, 8.0, 12.5, 88.0, 5.5, 24.0, 0.0, 0.0, 0.0, 1.617003896638856E9, 2021-03-29 10:44:56.638
192.0, -52619.24609375, -3619.015625, 187500.0, -63717.51171875, -12588.859375, -29695.1640625, 5949.36376953125, -4071.995849609375, -187500.015625, -187500.015625, -187500.015625, -187500.015625, -187500.015625, -187500.015625, -130715.703125, -187500.015625, -0.3862481261674805, 0.819858605352715, 0.35280735513241646, 192.0, 0.0, 0.0, 0.0, 0.0, 0.0, 0.0, 0.0, 0.0, 0.0, 1.6170038966388607E9, 2021-03-29 10:44:56.638
194.0, -52700.89453125, -3630.615966796875, 187500.0, -63698.01953125, -12567.6259765625, -29679.29296875, 5964.5849609375, -4059.434326171875, -187500.015625, -187500.015625, -187500.015625, -187500.015625, -187500.015625, -187500.015625, -130715.2109375, -187500.015625, -0.3862481261674805, 0.819858605352715, 0.35280735513241646, 192.0, 0.0, 0.0, 0.0, 0.0, 0.0, 0.0, 0.0, 0.0, 0.0, 1.6170038966388657E9, 2021-03-29 10:44:56.638
196.0, -52936.8203125, -3622.90478515625, 187500.0, -63701.8671875, -12578.64453125, -29689.6875, 5943.48486328125, -4070.67724609375, -187500.015625, -187500.015625, -187500.015625, -187500.015625, -187500.015625, -187500.015625, -130708.28125, -187500.015625, -0.3862481261674805, 0.819858605352715, 0.35280735513241646, 192.0, 0.0, 0.0, 0.0, 0.0, 0.0, 0.0, 0.0, 0.0, 0.0, 1.6170038966388705E9, 2021-03-29 10:44:56.638
198.0, -52238.73046875, -3639.534423828125, 187500.0, -63702.55859375, -12587.451171875, -29695.833984375, 5938.76904296875, -4083.529541015625, -187500.015625, -187500.015625, -187500.015625, -187500.015625, -187500.015625, -187500.015625, -130708.4140625, -187500.015625, -0.3862481261674805, 0.819858605352715, 0.35280735513241646, 192.0, 0.0, 0.0, 0.0, 0.0, 0.0, 0.0, 0.0, 0.0, 0.0, 1.6170038966388752E9, 2021-03-29 10:44:56.638
200.0, -52950.4296875, -3618.47900390625, 187500.0, -63666.57421875, -12560.47265625, -29650.548828125, 5974.28564453125, -4043.318603515625, -187500.015625, -187500.015625, -187500.015625, -187500.015625, -187500.015625, -187500.015625, -130705.3046875, -187500.015625, -0.3851240647526703, 0.8229293200809138, 0.3574036867453235, 192.0, 122.0, 0.0, 12.5, 104.0, 5.5, 40.0, 0.0, 0.0, 0.0, 1.6170038966388803E9, 2021-03-29 10:44:56.638
202.0, -52414.66015625, -3635.712158203125, 187500.0, -63704.52734375, -12601.9580078125, -29677.59375, 5936.064453125, -4071.68310546875, -187500.015625, -187500.015625, -187500.015625, -187500.015625, -187500.015625, -187500.015625, -130703.5390625, -187500.015625, -0.3851240647526703, 0.8229293200809138, 0.3574036867453235, 192.0, 0.0, 0.0, 0.0, 0.0, 0.0, 0.0, 0.0, 0.0, 0.0, 1.6170038966388855E9, 2021-03-29 10:44:56.638
204.0, -52512.71875, -3646.7763671875, 187500.0, -63689.50390625, -12572.4091796875, -29653.96875, 5959.623046875, -4053.08642578125, -187500.015625, -187500.015625, -187500.015625, -187500.015625, -187500.015625, -187500.015625, -130704.0546875, -187500.015625, -0.3851240647526703, 0.8229293200809138, 0.3574036867453235, 192.0, 0.0, 0.0, 0.0, 0.0, 0.0, 0.0, 0.0, 0.0, 0.0, 1.6170038966388905E9, 2021-03-29 10:44:56.638
206.0, -52773.6953125, -3642.46240234375, 187500.0, -63704.234375, -12585.3955078125, -29666.732421875, 5951.0625, -4066.229248046875, -187500.015625, -187500.015625, -187500.015625, -187500.015625, -187500.015625, -187500.015625, -130695.765625, -187500.015625, -0.3851240647526703, 0.8229293200809138, 0.3574036867453235, 192.0, 0.0, 0.0, 0.0, 0.0, 0.0, 0.0, 0.0, 0.0, 0.0, 1.6170038966388955E9, 2021-03-29 10:44:56.638
208.0, -52112.0859375, -3641.054443359375, 187500.0, -63699.02734375, -12585.529296875, -29669.951171875, 5949.005859375, -4073.24755859375, -187500.015625, -187500.015625, -187500.015625, -187500.015625, -187500.015625, -187500.015625, -130694.515625, -187500.015625, -0.3851240647526703, 0.8229293200809138, 0.3574036867453235, 192.0, 0.0, 0.0, 0.0, 0.0, 0.0, 0.0, 0.0, 0.0, 0.0, 1.6170038966389005E9, 2021-03-29 10:44:56.638
210.0, -52842.29296875, -3618.546142578125, 187500.0, -63667.51171875, -12574.6884765625, -29648.939453125, 5964.16064453125, -4052.9970703125, -187500.015625, -187500.015625, -187500.015625, -187500.015625, -187500.015625, -187500.015625, -130690.9375, -187500.015625, -0.38556203607182316, 0.8214646862665006, 0.35870185052521913, 192.0, 121.5, 120.0, 12.5, 80.0, 5.5, 32.0, 0.0, 0.0, 0.0, 1.617003896638905E9, 2021-03-29 10:44:56.638
212.0, -52339.9140625, -3610.365478515625, 187500.0, -63683.22265625, -12599.365234375, -29676.90234375, 5939.70751953125, -4081.87548828125, -187500.015625, -187500.015625, -187500.015625, -187500.015625, -187500.015625, -187500.015625, -130687.875, -187500.015625, -0.38556203607182316, 0.8214646862665006, 0.35870185052521913, 192.0, 0.0, 0.0, 0.0, 0.0, 0.0, 0.0, 0.0, 0.0, 0.0, 1.61700389663891E9, 2021-03-29 10:44:56.638
214.0, -52443.94140625, -3622.189453125, 187500.0, -63664.3828125, -12574.0400390625, -29663.400390625, 5954.97412109375, -4069.984375, -187500.015625, -187500.015625, -187500.015625, -187500.015625, -187500.015625, -187500.015625, -130689.90625, -187500.015625, -0.38556203607182316, 0.8214646862665006, 0.35870185052521913, 192.0, 0.0, 0.0, 0.0, 0.0, 0.0, 0.0, 0.0, 0.0, 0.0, 1.6170038966389148E9, 2021-03-29 10:44:56.638
216.0, -52740.4140625, -3609.426513671875, 187500.0, -63667.8671875, -12582.2431640625, -29660.96484375, 5940.95947265625, -4081.696533203125, -187500.015625, -187500.015625, -187500.015625, -187500.015625, -187500.015625, -187500.015625, -130682.1953125, -187500.015625, -0.38556203607182316, 0.8214646862665006, 0.35870185052521913, 192.0, 0.0, 0.0, 0.0, 0.0, 0.0, 0.0, 0.0, 0.0, 0.0, 1.6170038966389196E9, 2021-03-29 10:44:56.638
218.0, -52062.57421875, -3620.31201171875, 187500.0, -63679.24609375, -12590.3125, -29662.1953125, 5942.54638671875, -4067.369140625, -187500.015625, -187500.015625, -187500.015625, -187500.015625, -187500.015625, -187500.015625, -130684.6796875, -187500.015625, -0.38556203607182316, 0.8214646862665006, 0.35870185052521913, 192.0, 0.0, 0.0, 0.0, 0.0, 0.0, 0.0, 0.0, 0.0, 0.0, 1.6170038966389244E9, 2021-03-29 10:44:56.638
220.0, -52758.2734375, -3622.658935546875, 187500.0, -63668.65234375, -12578.8681640625, -29648.158203125, 5946.72607421875, -4058.137939453125, -187500.015625, -187500.015625, -187500.015625, -187500.015625, -187500.015625, -187500.015625, -130679.359375, -187500.015625, -0.3877810257845154, 0.8177323483784591, 0.35635092633549315, 192.0, 121.5, 104.0, 12.5, 56.0, 5.5, 8.0, 0.0, 0.0, 0.0, 1.6170038966389291E9, 2021-03-29 10:44:56.638
222.0, -52229.98828125, -3624.916259765625, 187500.0, -63693.52734375, -12608.5966796875, -29675.78515625, 5919.12158203125, -4087.932861328125, -187500.015625, -187500.015625, -187500.015625, -187500.015625, -187500.015625, -187500.015625, -130676.140625, -187500.015625, -0.3877810257845154, 0.8177323483784591, 0.35635092633549315, 192.0, 0.0, 0.0, 0.0, 0.0, 0.0, 0.0, 0.0, 0.0, 0.0, 1.6170038966389356E9, 2021-03-29 10:44:56.638
224.0, -52286.40625, -3628.06787109375, 187500.0, -63668.25, -12584.92578125, -29653.791015625, 5942.6357421875, -4068.799560546875, -187500.015625, -187500.015625, -187500.015625, -187500.015625, -187500.015625, -187500.015625, -130678.171875, -187500.015625, -0.3877810257845154, 0.8177323483784591, 0.35635092633549315, 192.0, 0.0, 0.0, 0.0, 0.0, 0.0, 0.0, 0.0, 0.0, 0.0, 1.6170038971190434E9, 2021-03-29 10:44:57.119
226.0, -52587.6171875, -3601.3798828125, 187500.0, -63656.42578125, -12569.48046875, -29639.484375, 5967.4462890625, -4055.5673828125, -187500.015625, -187500.015625, -187500.015625, -187500.015625, -187500.015625, -187500.015625, -130669.078125, -187500.015625, -0.3877810257845154, 0.8177323483784591, 0.35635092633549315, 192.0, 0.0, 0.0, 0.0, 0.0, 0.0, 0.0, 0.0, 0.0, 0.0, 1.6170038971191647E9, 2021-03-29 10:44:57.119
228.0, -51882.80078125, -3612.1982421875, 187500.0, -63664.78515625, -12589.552734375, -29650.7734375, 5948.49169921875, -4079.28271484375, -187500.015625, -187500.015625, -187500.015625, -187500.015625, -187500.015625, -187500.015625, -130671.578125, -187500.015625, -0.3877810257845154, 0.8177323483784591, 0.35635092633549315, 192.0, 0.0, 0.0, 0.0, 0.0, 0.0, 0.0, 0.0, 0.0, 0.0, 1.6170038971191816E9, 2021-03-29 10:44:57.119
230.0, -52614.12890625, -3597.22265625, 187500.0, -63637.71484375, -12561.478515625, -29613.064453125, 5979.33740234375, -4048.86181640625, -187500.015625, -187500.015625, -187500.015625, -187500.015625, -187500.015625, -187500.015625, -130667.6875, -187500.015625, -0.38789051861430357, 0.811866201130529, 0.3511754710355597, 192.0, 121.5, 112.0, 12.5, 24.0, 5.0, 104.0, 0.0, 0.0, 0.0, 1.6170038971191857E9, 2021-03-29 10:44:57.119
232.0, -52107.30078125, -3596.060302734375, 187500.0, -63667.35546875, -12588.6357421875, -29632.7578125, 5941.40625, -4076.309814453125, -187500.015625, -187500.015625, -187500.015625, -187500.015625, -187500.015625, -187500.015625, -130667.1328125, -187500.015625, -0.38789051861430357, 0.811866201130529, 0.3511754710355597, 192.0, 0.0, 0.0, 0.0, 0.0, 0.0, 0.0, 0.0, 0.0, 0.0, 1.61700389711919E9, 2021-03-29 10:44:57.119
234.0, -52157.79296875, -3622.547119140625, 187500.0, -63665.453125, -12579.3154296875, -29624.732421875, 5948.6708984375, -4073.024169921875, -187500.015625, -187500.015625, -187500.015625, -187500.015625, -187500.015625, -187500.015625, -130666.6640625, -187500.015625, -0.38789051861430357, 0.811866201130529, 0.3511754710355597, 192.0, 0.0, 0.0, 0.0, 0.0, 0.0, 0.0, 0.0, 0.0, 0.0, 1.617003897119194E9, 2021-03-29 10:44:57.119
236.0, -52486.07421875, -3601.961181640625, 187500.0, -63666.50390625, -12582.5791015625, -29640.087890625, 5943.865234375, -4079.394287109375, -187500.015625, -187500.015625, -187500.015625, -187500.015625, -187500.015625, -187500.015625, -130658.1015625, -187500.015625, -0.38789051861430357, 0.811866201130529, 0.3511754710355597, 192.0, 0.0, 0.0, 0.0, 0.0, 0.0, 0.0, 0.0, 0.0, 0.0, 1.6170038971191983E9, 2021-03-29 10:44:57.119
238.0, -51779.78125, -3618.50146484375, 187500.0, -63683.44921875, -12609.2666015625, -29672.587890625, 5928.75537109375, -4099.1533203125, -187500.015625, -187500.015625, -187500.015625, -187500.015625, -187500.015625, -187500.015625, -130659.7109375, -187500.015625, -0.38789051861430357, 0.811866201130529, 0.3511754710355597, 192.0, 0.0, 0.0, 0.0, 0.0, 0.0, 0.0, 0.0, 0.0, 0.0, 1.6170038971192029E9, 2021-03-29 10:44:57.119
240.0, -52508.26953125, -3600.061279296875, 187500.0, -63651.5078125, -12586.9375, -29658.55078125, 5954.70556640625, -4079.595458984375, -187500.015625, -187500.015625, -187500.015625, -187500.015625, -187500.015625, -187500.015625, -130654.6328125, -187500.015625, -0.3879452650291977, 0.814933109863589, 0.35258773659066345, 192.0, 121.5, 112.0, 12.5, 72.0, 5.5, 8.0, 0.0, 0.0, 0.0, 1.617003897119207E9, 2021-03-29 10:44:57.119
242.0, -52006.18359375, -3610.857177734375, 187500.0, -63682.21875, -12624.8232421875, -29696.458984375, 5900.63671875, -4130.80322265625, -187500.015625, -187500.015625, -187500.015625, -187500.015625, -187500.015625, -187500.015625, -130651.640625, -187500.015625, -0.3879452650291977, 0.814933109863589, 0.35258773659066345, 192.0, 0.0, 0.0, 0.0, 0.0, 0.0, 0.0, 0.0, 0.0, 0.0, 1.6170038971192112E9, 2021-03-29 10:44:57.119
244.0, -52044.22265625, -3614.858154296875, 187500.0, -63650.92578125, -12592.4580078125, -29659.2890625, 5941.16064453125, -4078.1875, -187500.015625, -187500.015625, -187500.015625, -187500.015625, -187500.015625, -187500.015625, -130651.171875, -187500.015625, -0.3879452650291977, 0.814933109863589, 0.35258773659066345, 192.0, 0.0, 0.0, 0.0, 0.0, 0.0, 0.0, 0.0, 0.0, 0.0, 1.6170038971192155E9, 2021-03-29 10:44:57.119
246.0, -52358.71484375, -3592.39453125, 187500.0, -63646.74609375, -12590.423828125, -29648.6484375, 5958.05859375, -4073.64990234375, -187500.015625, -187500.015625, -187500.015625, -187500.015625, -187500.015625, -187500.015625, -130644.7578125, -187500.015625, -0.3879452650291977, 0.814933109863589, 0.35258773659066345, 192.0, 0.0, 0.0, 0.0, 0.0, 0.0, 0.0, 0.0, 0.0, 0.0, 1.6170038971192195E9, 2021-03-29 10:44:57.119
248.0, -51569.2734375, -3605.224609375, 187500.0, -63660.71484375, -12608.037109375, -29660.18359375, 5929.49267578125, -4093.118408203125, -187500.015625, -187500.015625, -187500.015625, -187500.015625, -187500.015625, -187500.015625, -130649.09375, -187500.015625, -0.3879452650291977, 0.814933109863589, 0.35258773659066345, 192.0, 0.0, 0.0, 0.0, 0.0, 0.0, 0.0, 0.0, 0.0, 0.0, 1.6170038971192236E9, 2021-03-29 10:44:57.119
250.0, -52266.33203125, -3582.537353515625, 187500.0, -63624.26171875, -12567.3798828125, -29613.466796875, 5972.07275390625, -4052.929931640625, -187500.015625, -187500.015625, -187500.015625, -187500.015625, -187500.015625, -187500.015625, -130644.0, -187500.015625, -0.38897264026320266, 0.8144665601770033, 0.35829387950100494, 192.0, 121.5, 104.0, 12.5, 56.0, 5.5, 48.0, 0.0, 0.0, 0.0, 1.617003897119228E9, 2021-03-29 10:44:57.119
252.0, -51672.6953125, -3603.3916015625, 187500.0, -63676.921875, -12617.58203125, -29654.83984375, 5929.0234375, -4096.404296875, -187500.015625, -187500.015625, -187500.015625, -187500.015625, -187500.015625, -187500.015625, -130644.5078125, -187500.015625, -0.38897264026320266, 0.8144665601770033, 0.35829387950100494, 192.0, 0.0, 0.0, 0.0, 0.0, 0.0, 0.0, 0.0, 0.0, 0.0, 1.617003897119233E9, 2021-03-29 10:44:57.119
254.0, -51639.703125, -3607.862060546875, 187500.0, -63658.45703125, -12594.1572265625, -29623.234375, 5944.021484375, -4071.9736328125, -187500.015625, -187500.015625, -187500.015625, -187500.015625, -187500.015625, -187500.015625, -130644.3984375, -187500.015625, -0.38897264026320266, 0.8144665601770033, 0.35829387950100494, 192.0, 0.0, 0.0, 0.0, 0.0, 0.0, 0.0, 0.0, 0.0, 0.0, 1.6170038971192374E9, 2021-03-29 10:44:57.119
0.0, -51893.41796875, -3587.834716796875, 187500.0, -63664.875, -12601.3994140625, -29626.677734375, 5939.08203125, -4078.410888671875, -187500.015625, -187500.015625, -187500.015625, -187500.015625, -187500.015625, -187500.015625, -130637.0, -187500.015625, -0.38897264026320266, 0.8144665601770033, 0.35829387950100494, 192.0, 0.0, 0.0, 0.0, 0.0, 0.0, 0.0, 0.0, 0.0, 0.0, 1.6170038971192472E9, 2021-03-29 10:44:57.119
2.0, -51002.5, -3599.92724609375, 187500.0, -63680.33984375, -12618.251953125, -29645.54296875, 5922.76513671875, -4100.69580078125, -187500.015625, -187500.015625, -187500.015625, -187500.015625, -187500.015625, -187500.015625, -130639.2109375, -187500.015625, -0.38897264026320266, 0.8144665601770033, 0.35829387950100494, 192.0, 0.0, 0.0, 0.0, 0.0, 0.0, 0.0, 0.0, 0.0, 0.0, 1.6170038971192515E9, 2021-03-29 10:44:57.119
4.0, -51651.8828125, -3575.876708984375, 187500.0, -63646.56640625, -12590.513671875, -29621.759765625, 5950.615234375, -4072.44287109375, -187500.015625, -187500.015625, -187500.015625, -187500.015625, -187500.015625, -187500.015625, -130637.5859375, -187500.015625, -0.38948632788020515, 0.809233290102082, 0.35614694082338605, 192.0, 121.5, 104.0, 12.5, 16.0, 5.5, 8.0, 0.0, 0.0, 0.0, 1.6170038971192555E9, 2021-03-29 10:44:57.119
6.0, -51006.74609375, -3582.29150390625, 187500.0, -63679.71484375, -12624.6669921875, -29662.865234375, 5912.95263671875, -4110.3515625, -187500.015625, -187500.015625, -187500.015625, -187500.015625, -187500.015625, -187500.015625, -130639.1953125, -187500.015625, -0.38948632788020515, 0.809233290102082, 0.35614694082338605, 192.0, 0.0, 0.0, 0.0, 0.0, 0.0, 0.0, 0.0, 0.0, 0.0, 1.6170038971192596E9, 2021-03-29 10:44:57.119
8.0, -50878.1328125, -3593.534423828125, 187500.0, -63657.85546875, -12608.0595703125, -29653.029296875, 5934.92431640625, -4099.84619140625, -187500.015625, -187500.015625, -187500.015625, -187500.015625, -187500.015625, -187500.015625, -130642.3203125, -187500.015625, -0.38948632788020515, 0.809233290102082, 0.35614694082338605, 192.0, 0.0, 0.0, 0.0, 0.0, 0.0, 0.0, 0.0, 0.0, 0.0, 1.617003897119264E9, 2021-03-29 10:44:57.119
10.0, -51082.5859375, -3570.646240234375, 187500.0, -63659.0859375, -12627.0810546875, -29662.171875, 5913.01953125, -4110.66455078125, -187500.015625, -187500.015625, -187500.015625, -187500.015625, -187500.015625, -187500.015625, -130636.0859375, -187500.015625, -0.38948632788020515, 0.809233290102082, 0.35614694082338605, 192.0, 0.0, 0.0, 0.0, 0.0, 0.0, 0.0, 0.0, 0.0, 0.0, 1.6170038971192677E9, 2021-03-29 10:44:57.119
12.0, -50082.9921875, -3590.427734375, 187500.0, -63678.88671875, -12643.755859375, -29683.697265625, 5893.90869140625, -4130.82568359375, -187500.015625, -187500.015625, -187500.015625, -187500.015625, -187500.015625, -187500.015625, -130638.3671875, -187500.015625, -0.38948632788020515, 0.809233290102082, 0.35614694082338605, 192.0, 0.0, 0.0, 0.0, 0.0, 0.0, 0.0, 0.0, 0.0, 0.0, 1.617003897119272E9, 2021-03-29 10:44:57.119
14.0, -50793.46484375, -3562.488037109375, 187500.0, -63631.34765625, -12591.876953125, -29634.1875, 5950.1904296875, -4084.64697265625, -187500.015625, -187500.015625, -187500.015625, -187500.015625, -187500.015625, -187500.015625, -130635.7265625, -187500.015625, -0.39074317371526435, 0.8076166719923404, 0.3540734843591799, 192.0, 121.5, 96.0, 12.5, 24.0, 5.5, 0.0, 0.0, 0.0, 0.0, 1.617003897119276E9, 2021-03-29 10:44:57.119
16.0, -50111.1328125, -3563.11376953125, 187500.0, -63656.69140625, -12620.263671875, -29656.115234375, 5925.93896484375, -4102.998046875, -187500.015625, -187500.015625, -187500.015625, -187500.015625, -187500.015625, -187500.015625, -130637.9375, -187500.015625, -0.39074317371526435, 0.8076166719923404, 0.3540734843591799, 192.0, 0.0, 0.0, 0.0, 0.0, 0.0, 0.0, 0.0, 0.0, 0.0, 1.61700389711928E9, 2021-03-29 10:44:57.119
18.0, -50111.84765625, -3590.383056640625, 187500.0, -63641.58203125, -12596.3251953125, -29633.40625, 5931.77294921875, -4087.26220703125, -187500.015625, -187500.015625, -187500.015625, -187500.015625, -187500.015625, -187500.015625, -130643.4609375, -187500.015625, -0.39074317371526435, 0.8076166719923404, 0.3540734843591799, 192.0, 0.0, 0.0, 0.0, 0.0, 0.0, 0.0, 0.0, 0.0, 0.0, 1.6170038971192844E9, 2021-03-29 10:44:57.119
20.0, -51019.30859375, -3583.49853515625, 187500.0, -63646.96875, -12591.408203125, -29628.041015625, 5946.10009765625, -4077.740234375, -187500.015625, -187500.015625, -187500.015625, -187500.015625, -187500.015625, -187500.015625, -130635.9765625, -187500.015625, -0.39074317371526435, 0.8076166719923404, 0.3540734843591799, 192.0, 0.0, 0.0, 0.0, 0.0, 0.0, 0.0, 0.0, 0.0, 0.0, 1.6170038971192884E9, 2021-03-29 10:44:57.119
22.0, -48665.06640625, -3628.87255859375, 187500.0, -63721.84765625, -12675.9423828125, -29700.953125, 5856.89453125, -4159.7041015625, -187500.015625, -187500.015625, -187500.015625, -187500.015625, -187500.015625, -187500.015625, -130639.7734375, -187500.015625, -0.39074317371526435, 0.8076166719923404, 0.3540734843591799, 192.0, 0.0, 0.0, 0.0, 0.0, 0.0, 0.0, 0.0, 0.0, 0.0, 1.6170038971192925E9, 2021-03-29 10:44:57.119
24.0, -52036.04296875, -3567.427734375, 187500.0, -63587.046875, -12528.599609375, -29559.353515625, 6002.73974609375, -4022.062255859375, -187500.015625, -187500.015625, -187500.015625, -187500.015625, -187500.015625, -187500.015625, -130631.5234375, -187500.015625, -0.38200002908706665, 0.812000036239624, 0.34200000762939453, 192.0, 122.0, 8.0, 12.5, 48.0, 5.0, 88.0, 0.0, 0.0, 0.0, 1.6170038971192968E9, 2021-03-29 10:44:57.119
26.0, -50280.15625, -3589.48876953125, 187500.0, -63740.625, -12680.1884765625, -29712.6640625, 5839.03564453125, -4178.748046875, -187500.015625, -187500.015625, -187500.015625, -187500.015625, -187500.015625, -187500.015625, -130628.4375, -187500.015625, -0.38200002908706665, 0.812000036239624, 0.34200000762939453, 192.0, 0.0, 0.0, 0.0, 0.0, 0.0, 0.0, 0.0, 0.0, 0.0, 1.6170038971193008E9, 2021-03-29 10:44:57.119
28.0, -50394.75390625, -3644.1611328125, 187500.0, -63650.97265625, -12579.94140625, -29615.94921875, 5943.37353515625, -4078.097900390625, -187500.015625, -187500.015625, -187500.015625, -187500.015625, -187500.015625, -187500.015625, -130637.046875, -187500.015625, -0.38200002908706665, 0.812000036239624, 0.34200000762939453, 192.0, 0.0, 0.0, 0.0, 0.0, 0.0, 0.0, 0.0, 0.0, 0.0, 1.617003897119305E9, 2021-03-29 10:44:57.119
30.0, -52468.7734375, -3564.70068359375, 187500.0, -63668.6953125, -12589.619140625, -29630.857421875, 5924.44140625, -4094.28076171875, -187500.015625, -187500.015625, -187500.015625, -187500.015625, -187500.015625, -187500.015625, -130616.5703125, -187500.015625, -0.38200002908706665, 0.812000036239624, 0.34200000762939453, 192.0, 0.0, 0.0, 0.0, 0.0, 0.0, 0.0, 0.0, 0.0, 0.0, 1.617003897119309E9, 2021-03-29 10:44:57.119
32.0, -49357.76953125, -3644.228271484375, 187500.0, -63756.71875, -12693.443359375, -29716.21875, 5823.076171875, -4192.091796875, -187500.015625, -187500.015625, -187500.015625, -187500.015625, -187500.015625, -187500.015625, -130624.3984375, -187500.015625, -0.38200002908706665, 0.812000036239624, 0.34200000762939453, 192.0, 0.0, 0.0, 0.0, 0.0, 0.0, 0.0, 0.0, 0.0, 0.0, 1.6170038971193132E9, 2021-03-29 10:44:57.119
34.0, -53229.8515625, -3586.448974609375, 187500.0, -63606.984375, -12531.5947265625, -29556.224609375, 6013.982421875, -4029.125244140625, -187500.015625, -187500.015625, -187500.015625, -187500.015625, -187500.015625, -187500.015625, -130613.890625, -187500.015625, -0.3840000033378601, 0.8180000185966492, 0.35200002789497375, 192.0, 122.0, 0.0, 12.5, 72.0, 5.5, 0.0, 0.0, 0.0, 0.0, 1.6170038971193187E9, 2021-03-29 10:44:57.119
36.0, -51712.63671875, -3596.28369140625, 187500.0, -63749.87890625, -12686.134765625, -29704.974609375, 5846.6572265625, -4179.39599609375, -187500.015625, -187500.015625, -187500.015625, -187500.015625, -187500.015625, -187500.015625, -130603.3359375, -187500.015625, -0.3840000033378601, 0.8180000185966492, 0.35200002789497375, 192.0, 0.0, 0.0, 0.0, 0.0, 0.0, 0.0, 0.0, 0.0, 0.0, 1.6170038971193228E9, 2021-03-29 10:44:57.119
38.0, -52136.8046875, -3656.901611328125, 187500.0, -63647.59765625, -12578.3095703125, -29599.341796875, 5965.009765625, -4070.297119140625, -187500.015625, -187500.015625, -187500.015625, -187500.015625, -187500.015625, -187500.015625, -130611.1875, -187500.015625, -0.3840000033378601, 0.8180000185966492, 0.35200002789497375, 192.0, 0.0, 0.0, 0.0, 0.0, 0.0, 0.0, 0.0, 0.0, 0.0, 1.6170038971193273E9, 2021-03-29 10:44:57.119
40.0, -54777.3046875, -3592.349853515625, 187500.0, -63680.2734375, -12605.802734375, -29636.892578125, 5918.31689453125, -4111.08935546875, -187500.015625, -187500.015625, -187500.015625, -187500.015625, -187500.015625, -187500.015625, -130585.0078125, -187500.015625, -0.3840000033378601, 0.8180000185966492, 0.35200002789497375, 192.0, 0.0, 0.0, 0.0, 0.0, 0.0, 0.0, 0.0, 0.0, 0.0, 1.6170038971193314E9, 2021-03-29 10:44:57.119
42.0, -51460.5546875, -3674.291259765625, 187500.0, -63777.66015625, -12720.2880859375, -29733.228515625, 5817.935546875, -4200.63037109375, -187500.015625, -187500.015625, -187500.015625, -187500.015625, -187500.015625, -187500.015625, -130588.5625, -187500.015625, -0.3840000033378601, 0.8180000185966492, 0.35200002789497375, 192.0, 0.0, 0.0, 0.0, 0.0, 0.0, 0.0, 0.0, 0.0, 0.0, 1.6170038971193357E9, 2021-03-29 10:44:57.119
44.0, -55724.59375, -3607.10205078125, 187500.0, -63611.51953125, -12547.8662109375, -29568.787109375, 6001.51025390625, -4037.641357421875, -187500.015625, -187500.015625, -187500.015625, -187500.015625, -187500.015625, -187500.015625, -130578.6171875, -187500.015625, -0.38600000739097595, 0.8260000348091125, 0.34800001978874207, 192.0, 121.5, 120.0, 12.5, 104.0, 5.0, 112.0, 0.0, 0.0, 0.0, 1.6170038971193397E9, 2021-03-29 10:44:57.119
