%OpenBCI Raw EEG Data
%Number of channels = 16
%Sample Rate = 125 Hz
%Board = OpenBCI_GUI$BoardCytonSerialDaisy
Sample Index, EXG Channel 0, EXG Channel 1, EXG Channel 2, EXG Channel 3, EXG Channel 4, EXG Channel 5, EXG Channel 6, EXG Channel 7, EXG Channel 8, EXG Channel 9, EXG Channel 10, EXG Channel 11, EXG Channel 12, EXG Channel 13, EXG Channel 14, EXG Channel 15, Accel Channel 0, Accel Channel 1, Accel Channel 2, Other, Other, Other, Other, Other, Other, Other, Analog Channel 0, Analog Channel 1, Analog Channel 2, Timestamp, Timestamp (Formatted)
0.0, -18993.728515625, -355.9962158203125, -187500.015625, -57304.3515625, -7962.89794921875, -26379.21484375, 7827.37939453125, -432.8415222167969, 93749.984375, 93749.984375, 93749.984375, 92182.4140625, -91747.6484375, 93393.7890625, -91639.2421875, 67434.046875, -0.24000000953674316, 0.3720000088214874, 0.20200000703334808, 192.0, 124.0, 64.0, 5.5, 80.0, 3.0, 40.0, 0.0, 0.0, 0.0, 1.6170039569558918E9, 2021-03-29 10:45:56.955
2.0, -18439.451171875, -335.2091064453125, -187500.015625, -57306.921875, -7984.93701171875, -26375.861328125, 7807.083984375, -427.3653259277344, 187500.0, 187500.0, 187500.0, 184379.484375, -183560.453125, 186827.15625, -183321.796875, 134887.8125, -0.24000000953674316, 0.3720000088214874, 0.20200000703334808, 192.0, 0.0, 0.0, 0.0, 0.0, 0.0, 0.0, 0.0, 0.0, 0.0, 1.6170039569558969E9, 2021-03-29 10:45:56.955
4.0, -18626.892578125, -371.37420654296875, -187500.015625, -57335.484375, -7974.67724609375, -26406.1484375, 7790.2978515625, -452.5780944824219, 187500.0, 187500.0, 187500.0, 184345.96875, -183516.9375, 186767.96875, -183423.6875, 134843.953125, -0.24000000953674316, 0.3720000088214874, 0.20200000703334808, 192.0, 0.0, 0.0, 0.0, 0.0, 0.0, 0.0, 0.0, 0.0, 0.0, 1.617003956955901E9, 2021-03-29 10:45:56.955
6.0, -18920.953125, -340.81939697265625, -187500.015625, -57315.83984375, -7977.87353515625, -26386.14453125, 7814.03564453125, -431.6568603515625, 187500.0, 187500.0, 187500.0, 184346.40625, -183504.640625, 186798.734375, -183325.046875, 134845.65625, -0.2970000058412552, 0.46400003135204315, 0.25300001353025436, 192.0, 122.0, 120.0, 8.5, 48.0, 4.5, 64.0, 0.0, 0.0, 0.0, 1.617003956955905E9, 2021-03-29 10:45:56.955
8.0, -18223.689453125, -325.6425476074219, -187500.015625, -57308.4609375, -7961.4677734375, -26378.232421875, 7840.54443359375, -413.4402160644531, 187500.0, 187500.0, 187500.0, 184294.65625, -183505.40625, 186745.75, -183526.921875, 134811.125, -0.2970000058412552, 0.46400003135204315, 0.25300001353025436, 192.0, 0.0, 0.0, 0.0, 0.0, 0.0, 0.0, 0.0, 0.0, 0.0, 1.6170039569559093E9, 2021-03-29 10:45:56.955
10.0, -19049.630859375, -336.0137634277344, -187500.015625, -57315.90625, -7956.7958984375, -26387.619140625, 7843.4501953125, -422.3808898925781, 187500.0, 187500.0, 187500.0, 184302.890625, -183425.109375, 186691.125, -183388.296875, 134805.25, -0.2970000058412552, 0.46400003135204315, 0.25300001353025436, 192.0, 0.0, 0.0, 0.0, 0.0, 0.0, 0.0, 0.0, 0.0, 0.0, 1.6170039569559133E9, 2021-03-29 10:45:56.955
12.0, -18490.234375, -298.7087097167969, -187500.015625, -57298.671875, -7980.6455078125, -26390.501953125, 7826.77587890625, -442.6092224121094, 187500.0, 187500.0, 187500.0, 184317.3125, -183474.09375, 186708.421875, -183330.0, 134805.0625, -0.2970000058412552, 0.46400003135204315, 0.25300001353025436, 192.0, 0.0, 0.0, 0.0, 0.0, 0.0, 0.0, 0.0, 0.0, 0.0, 1.6170039569559176E9, 2021-03-29 10:45:56.955
14.0, -18663.951171875, -331.1410827636719, -187500.015625, -57317.359375, -7968.50830078125, -26407.736328125, 7808.3134765625, -452.6898498535156, 187500.0, 187500.0, 187500.0, 184308.640625, -183420.28125, 186703.28125, -183425.34375, 134780.90625, -0.2970000058412552, 0.46400003135204315, 0.25300001353025436, 192.0, 0.0, 0.0, 0.0, 0.0, 0.0, 0.0, 0.0, 0.0, 0.0, 1.6170039569559216E9, 2021-03-29 10:45:56.955
16.0, -18944.599609375, -306.91180419921875, -187500.015625, -57304.41796875, -7980.35498046875, -26387.9765625, 7818.34912109375, -430.8522033691406, 187500.0, 187500.0, 187500.0, 184285.28125, -183394.453125, 186702.640625, -183324.21875, 134754.28125, -0.35750000923871994, 0.5550000295042992, 0.2965000085532665, 192.0, 121.0, 120.0, 10.0, 24.0, 5.0, 80.0, 0.0, 0.0, 0.0, 1.6170039569559257E9, 2021-03-29 10:45:56.955
18.0, -18325.0546875, -295.1994934082031, -187500.015625, -57286.89453125, -7954.8740234375, -26373.291015625, 7847.2724609375, -415.40716552734375, 187500.0, 187500.0, 187500.0, 184302.546875, -183387.546875, 186704.1875, -183521.421875, 134772.046875, -0.35750000923871994, 0.5550000295042992, 0.2965000085532665, 192.0, 0.0, 0.0, 0.0, 0.0, 0.0, 0.0, 0.0, 0.0, 0.0, 1.6170039569559298E9, 2021-03-29 10:45:56.955
20.0, -19105.755859375, -307.4035339355469, -187500.015625, -57292.14453125, -7951.54345703125, -26380.66796875, 7858.22509765625, -416.7705993652344, 187500.0, 187500.0, 187500.0, 184312.03125, -183324.171875, 186676.359375, -183405.90625, 134770.546875, -0.35750000923871994, 0.5550000295042992, 0.2965000085532665, 192.0, 0.0, 0.0, 0.0, 0.0, 0.0, 0.0, 0.0, 0.0, 0.0, 1.6170039569559343E9, 2021-03-29 10:45:56.955
22.0, -18584.423828125, -292.09259033203125, -187500.015625, -57296.99609375, -7972.30810546875, -26382.76953125, 7845.57373046875, -428.2593994140625, 187500.0, 187500.0, 187500.0, 184306.46875, -183388.40625, 186673.3125, -183356.359375, 134766.890625, -0.35750000923871994, 0.5550000295042992, 0.2965000085532665, 192.0, 0.0, 0.0, 0.0, 0.0, 0.0, 0.0, 0.0, 0.0, 0.0, 1.617003956955938E9, 2021-03-29 10:45:56.955
24.0, -18711.359375, -324.92730712890625, -187500.015625, -57315.2578125, -7953.57763671875, -26394.951171875, 7842.6455078125, -434.1155700683594, 187500.0, 187500.0, 187500.0, 184248.890625, -183344.71875, 186614.0, -183448.875, 134714.421875, -0.35750000923871994, 0.5550000295042992, 0.2965000085532665, 192.0, 0.0, 0.0, 0.0, 0.0, 0.0, 0.0, 0.0, 0.0, 0.0, 1.6170039569559424E9, 2021-03-29 10:45:56.955
26.0, -19042.03125, -307.7164611816406, -187500.015625, -57308.484375, -7963.94873046875, -26377.873046875, 7843.02587890625, -429.39935302734375, 187500.0, 187500.0, 187500.0, 184249.890625, -183327.21875, 186601.96875, -183319.859375, 134712.75, -0.4007500223815441, 0.6275000385940075, 0.33325000666081905, 192.0, 121.0, 16.0, 10.5, 112.0, 5.5, 72.0, 0.0, 0.0, 0.0, 1.6170039569559464E9, 2021-03-29 10:45:56.955
28.0, -18383.19140625, -308.096435546875, -187500.015625, -57317.4921875, -7972.2412109375, -26385.65234375, 7832.96728515625, -437.46832275390625, 187500.0, 187500.0, 187500.0, 184259.734375, -183335.28125, 186646.15625, -183510.046875, 134721.625, -0.4007500223815441, 0.6275000385940075, 0.33325000666081905, 192.0, 0.0, 0.0, 0.0, 0.0, 0.0, 0.0, 0.0, 0.0, 0.0, 1.6170039569559505E9, 2021-03-29 10:45:56.955
30.0, -19132.244140625, -319.1605529785156, -187500.015625, -57319.9296875, -7969.1787109375, -26391.173828125, 7835.5380859375, -446.1855163574219, 187500.0, 187500.0, 187500.0, 184209.859375, -183265.4375, 186544.234375, -183391.828125, 134667.21875, -0.4007500223815441, 0.6275000385940075, 0.33325000666081905, 192.0, 0.0, 0.0, 0.0, 0.0, 0.0, 0.0, 0.0, 0.0, 0.0, 1.6170039569559546E9, 2021-03-29 10:45:56.955
32.0, -18645.490234375, -300.0498046875, -187500.015625, -57323.484375, -7972.0625, -26387.529296875, 7835.82861328125, -441.826904296875, 187500.0, 187500.0, 187500.0, 184247.65625, -183307.765625, 186600.421875, -183327.09375, 134699.46875, -0.4007500223815441, 0.6275000385940075, 0.33325000666081905, 192.0, 0.0, 0.0, 0.0, 0.0, 0.0, 0.0, 0.0, 0.0, 0.0, 1.6170039569559588E9, 2021-03-29 10:45:56.955
34.0, -18784.94140625, -313.52789306640625, -187500.015625, -57327.4609375, -7950.26953125, -26401.34375, 7823.333984375, -462.05523681640625, 187500.0, 187500.0, 187500.0, 184220.609375, -183218.828125, 186536.640625, -183406.46875, 134662.859375, -0.4007500223815441, 0.6275000385940075, 0.33325000666081905, 192.0, 0.0, 0.0, 0.0, 0.0, 0.0, 0.0, 0.0, 0.0, 0.0, 1.6170039569559677E9, 2021-03-29 10:45:56.955
36.0, -19115.14453125, -301.100341796875, -187500.015625, -57330.27734375, -7957.75732421875, -26393.67578125, 7858.873046875, -443.0115661621094, 187500.0, 187500.0, 187500.0, 184275.015625, -183201.265625, 186596.171875, -183307.71875, 134711.25, -0.42937502823770046, 0.6777500417083502, 0.36162501107901335, 192.0, 120.5, 88.0, 11.0, 96.0, 6.0, 24.0, 0.0, 0.0, 0.0, 1.6170039569559717E9, 2021-03-29 10:45:56.955
38.0, -18409.677734375, -315.6960144042969, -187500.015625, -57348.94140625, -7969.33544921875, -26409.94921875, 7846.15478515625, -455.9755554199219, 187500.0, 187500.0, 187500.0, 184231.65625, -183561.328125, 186572.390625, -183508.828125, 134672.9375, -0.42937502823770046, 0.6777500417083502, 0.36162501107901335, 192.0, 0.0, 0.0, 0.0, 0.0, 0.0, 0.0, 0.0, 0.0, 0.0, 1.6170039569559755E9, 2021-03-29 10:45:56.955
40.0, -19161.76953125, -308.6775817871094, -187500.015625, -57336.984375, -7960.90869140625, -26396.380859375, 7845.55126953125, -447.7724914550781, 187500.0, 187500.0, 187500.0, 184215.5625, -183480.234375, 186509.34375, -183389.5, 134637.890625, -0.42937502823770046, 0.6777500417083502, 0.36162501107901335, 192.0, 0.0, 0.0, 0.0, 0.0, 0.0, 0.0, 0.0, 0.0, 0.0, 1.6170039569559796E9, 2021-03-29 10:45:56.955
42.0, -18675.931640625, -302.70965576171875, -187500.015625, -57344.6484375, -7978.52197265625, -26398.2578125, 7840.4775390625, -458.8142395019531, 187500.0, 187500.0, 187500.0, 184215.9375, -183518.40625, 186559.3125, -183329.046875, 134656.46875, -0.42937502823770046, 0.6777500417083502, 0.36162501107901335, 192.0, 0.0, 0.0, 0.0, 0.0, 0.0, 0.0, 0.0, 0.0, 0.0, 1.6170039569559836E9, 2021-03-29 10:45:56.955
44.0, -18776.73828125, -320.2334289550781, -187500.015625, -57350.953125, -7957.15380859375, -26406.126953125, 7842.6455078125, -463.5975036621094, 187500.0, 187500.0, 187500.0, 184162.34375, -183455.578125, 186484.015625, -183409.3125, 134601.21875, -0.42937502823770046, 0.6777500417083502, 0.36162501107901335, 192.0, 0.0, 0.0, 0.0, 0.0, 0.0, 0.0, 0.0, 0.0, 0.0, 1.6170039569559877E9, 2021-03-29 10:45:56.955
46.0, -19152.94140625, -295.0206604003906, -187500.015625, -57334.234375, -7955.8349609375, -26388.53515625, 7854.291015625, -446.6995849609375, 187500.0, 187500.0, 187500.0, 184232.59375, -183422.0, 186507.4375, -183311.8125, 134659.625, -0.44468751829117537, 0.7078750384971499, 0.3798125213943422, 192.0, 120.5, 80.0, 11.5, 8.0, 6.0, 56.0, 0.0, 0.0, 0.0, 1.6170039569559917E9, 2021-03-29 10:45:56.955
48.0, -18488.400390625, -311.896240234375, -187500.015625, -57354.57421875, -7962.16064453125, -26402.662109375, 7861.39892578125, -462.0999450683594, 187500.0, 187500.0, 187500.0, 184233.703125, -183428.171875, 186535.140625, -183504.0, 134663.671875, -0.44468751829117537, 0.7078750384971499, 0.3798125213943422, 192.0, 0.0, 0.0, 0.0, 0.0, 0.0, 0.0, 0.0, 0.0, 0.0, 1.617003956955996E9, 2021-03-29 10:45:56.955
50.0, -19210.005859375, -319.9205017089844, -187500.015625, -57357.2109375, -7957.8466796875, -26398.884765625, 7855.9228515625, -456.86962890625, 187500.0, 187500.0, 187500.0, 184210.59375, -183349.09375, 186475.359375, -183386.25, 134631.09375, -0.44468751829117537, 0.7078750384971499, 0.3798125213943422, 192.0, 0.0, 0.0, 0.0, 0.0, 0.0, 0.0, 0.0, 0.0, 0.0, 1.617003956956E9, 2021-03-29 10:45:56.956
52.0, -18743.994140625, -297.3675842285156, -187500.015625, -57355.89453125, -7980.95849609375, -26395.21875, 7844.59033203125, -455.66265869140625, 187500.0, 187500.0, 187500.0, 184202.640625, -183398.265625, 186491.484375, -183318.359375, 134635.234375, -0.44468751829117537, 0.7078750384971499, 0.3798125213943422, 192.0, 0.0, 0.0, 0.0, 0.0, 0.0, 0.0, 0.0, 0.0, 0.0, 1.617003956956004E9, 2021-03-29 10:45:56.956
54.0, -18817.708984375, -306.53179931640625, -187500.015625, -57359.6015625, -7947.09521484375, -26401.857421875, 7869.35595703125, -472.85113525390625, 187500.0, 187500.0, 187500.0, 184178.171875, -183346.5, 186465.6875, -183392.59375, 134600.09375, -0.44468751829117537, 0.7078750384971499, 0.3798125213943422, 192.0, 0.0, 0.0, 0.0, 0.0, 0.0, 0.0, 0.0, 0.0, 0.0, 1.617003956956008E9, 2021-03-29 10:45:56.956
56.0, -19155.779296875, -273.67474365234375, -187500.015625, -57348.203125, -7962.3837890625, -26395.353515625, 7854.02294921875, -457.78607177734375, 187500.0, 187500.0, 187500.0, 184221.890625, -183316.15625, 186484.390625, -183301.515625, 134630.390625, -0.4553437693975866, 0.7259375280700624, 0.38990626367740333, 192.0, 120.5, 56.0, 11.5, 32.0, 6.0, 64.0, 0.0, 0.0, 0.0, 1.617003956956012E9, 2021-03-29 10:45:56.956
58.0, -18507.490234375, -278.4803771972656, -187500.015625, -57352.00390625, -7962.205078125, -26399.220703125, 7866.2939453125, -464.35748291015625, 187500.0, 187500.0, 187500.0, 184225.625, -183313.84375, 186499.03125, -183487.234375, 134626.421875, -0.4553437693975866, 0.7259375280700624, 0.38990626367740333, 192.0, 0.0, 0.0, 0.0, 0.0, 0.0, 0.0, 0.0, 0.0, 0.0, 1.6170039569560163E9, 2021-03-29 10:45:56.956
60.0, -19204.4609375, -284.9847412109375, -187500.015625, -57344.671875, -7948.34716796875, -26383.662109375, 7884.57763671875, -439.4129333496094, 187500.0, 187500.0, 187500.0, 184211.1875, -183163.640625, 186430.578125, -183370.59375, 134612.96875, -0.4553437693975866, 0.7259375280700624, 0.38990626367740333, 192.0, 0.0, 0.0, 0.0, 0.0, 0.0, 0.0, 0.0, 0.0, 0.0, 1.61700395695602E9, 2021-03-29 10:45:56.956
62.0, -18772.849609375, -260.8001403808594, -187500.015625, -57330.9921875, -7947.3857421875, -26377.158203125, 7891.88671875, -438.8541259765625, 187500.0, 187500.0, 187500.0, 184264.671875, -183453.5, 186499.234375, -183283.828125, 134672.875, -0.4553437693975866, 0.7259375280700624, 0.38990626367740333, 192.0, 0.0, 0.0, 0.0, 0.0, 0.0, 0.0, 0.0, 0.0, 0.0, 1.6170039569560244E9, 2021-03-29 10:45:56.956
64.0, -18863.77734375, -285.2752990722656, -187500.015625, -57342.05859375, -7937.841796875, -26389.966796875, 7876.01708984375, -458.568359375, 187500.0, 187500.0, 187500.0, 184248.84375, -183554.328125, 186479.5625, -183359.0625, 134653.28125, -0.4553437693975866, 0.7259375280700624, 0.38990626367740333, 192.0, 0.0, 0.0, 0.0, 0.0, 0.0, 0.0, 0.0, 0.0, 0.0, 1.6170039569560285E9, 2021-03-29 10:45:56.956
66.0, -19181.349609375, -271.7301330566406, -187500.015625, -57343.109375, -7950.783203125, -26390.123046875, 7889.38330078125, -449.31475830078125, 187500.0, 187500.0, 187500.0, 184275.515625, -183525.234375, 186497.65625, -183286.84375, 134678.3125, -0.4700000286102295, 0.7500000596046448, 0.4000000059604645, 192.0, 120.5, 40.0, 11.5, 56.0, 6.0, 64.0, 0.0, 0.0, 0.0, 1.6170039569560325E9, 2021-03-29 10:45:56.956
68.0, -18548.548828125, -268.2432861328125, -187500.015625, -57333.05078125, -7941.57470703125, -26385.33984375, 7892.75830078125, -453.226318359375, 187500.0, 187500.0, 187500.0, 184258.71875, -183522.1875, 186503.078125, -183481.28125, 134650.6875, -0.4700000286102295, 0.7500000596046448, 0.4000000059604645, 192.0, 0.0, 0.0, 0.0, 0.0, 0.0, 0.0, 0.0, 0.0, 0.0, 1.6170039569560378E9, 2021-03-29 10:45:56.956
70.0, -19207.724609375, -284.4259338378906, -187500.015625, -57345.90234375, -7946.9833984375, -26383.126953125, 7883.14697265625, -447.325439453125, 187500.0, 187500.0, 187500.0, 184244.859375, -183447.53125, 186434.984375, -183380.5625, 134632.640625, -0.4700000286102295, 0.7500000596046448, 0.4000000059604645, 192.0, 0.0, 0.0, 0.0, 0.0, 0.0, 0.0, 0.0, 0.0, 0.0, 1.617003956956042E9, 2021-03-29 10:45:56.956
72.0, -18781.9921875, -248.6855010986328, -187500.015625, -57330.9921875, -7953.73388671875, -26361.04296875, 7894.92626953125, -433.9143981933594, 187500.0, 187500.0, 187500.0, 184263.890625, -183489.796875, 186484.625, -183307.609375, 134647.90625, -0.4700000286102295, 0.7500000596046448, 0.4000000059604645, 192.0, 0.0, 0.0, 0.0, 0.0, 0.0, 0.0, 0.0, 0.0, 0.0, 1.617003956956046E9, 2021-03-29 10:45:56.956
74.0, -18813.41796875, -286.3034973144531, -187500.015625, -57364.85546875, -7942.2451171875, -26395.197265625, 7864.908203125, -492.4983215332031, 187500.0, 187500.0, 187500.0, 184241.46875, -183435.640625, 186443.84375, -183377.921875, 134618.109375, -0.4700000286102295, 0.7500000596046448, 0.4000000059604645, 192.0, 0.0, 0.0, 0.0, 0.0, 0.0, 0.0, 0.0, 0.0, 0.0, 1.61700395695605E9, 2021-03-29 10:45:56.956
76.0, -19131.70703125, -258.6990661621094, -187500.015625, -57342.5703125, -7956.90771484375, -26364.865234375, 7889.673828125, -433.7579345703125, 187500.0, 187500.0, 187500.0, 184213.8125, -183408.21875, 186402.03125, -183297.078125, 134593.96875, -0.4620000123977661, 0.7500000596046448, 0.3960000276565552, 192.0, 120.5, 72.0, 11.5, 56.0, 6.0, 48.0, 0.0, 0.0, 0.0, 1.617003956956054E9, 2021-03-29 10:45:56.956
78.0, -18531.919921875, -250.1830596923828, -187500.015625, -57336.1328125, -7930.041015625, -26368.708984375, 7908.13623046875, -451.5946350097656, 187500.0, 187500.0, 187500.0, 184229.15625, -183395.921875, 186428.40625, -183481.84375, 134606.46875, -0.4620000123977661, 0.7500000596046448, 0.3960000276565552, 192.0, 0.0, 0.0, 0.0, 0.0, 0.0, 0.0, 0.0, 0.0, 0.0, 1.6170039569560585E9, 2021-03-29 10:45:56.956
80.0, -19153.41015625, -283.5765686035156, -187500.015625, -57359.0234375, -7943.72021484375, -26390.345703125, 7882.61083984375, -459.9541931152344, 187500.0, 187500.0, 187500.0, 184225.796875, -183314.875, 186384.90625, -183379.21875, 134584.875, -0.4620000123977661, 0.7500000596046448, 0.3960000276565552, 192.0, 0.0, 0.0, 0.0, 0.0, 0.0, 0.0, 0.0, 0.0, 0.0, 1.6170039569560623E9, 2021-03-29 10:45:56.956
82.0, -18754.69921875, -261.068359375, -187500.015625, -57348.5390625, -7956.818359375, -26387.9765625, 7904.98486328125, -469.6101379394531, 187500.0, 187500.0, 187500.0, 184220.078125, -183345.59375, 186391.75, -183299.859375, 134566.34375, -0.4620000123977661, 0.7500000596046448, 0.3960000276565552, 192.0, 0.0, 0.0, 0.0, 0.0, 0.0, 0.0, 0.0, 0.0, 0.0, 1.6170039569560664E9, 2021-03-29 10:45:56.956
84.0, -18825.30859375, -282.34722900390625, -187500.015625, -57354.75390625, -7930.51025390625, -26382.142578125, 7913.54541015625, -455.3944396972656, 187500.0, 187500.0, 187500.0, 184211.9375, -183262.390625, 186366.578125, -183360.734375, 134578.421875, -0.4620000123977661, 0.7500000596046448, 0.3960000276565552, 192.0, 0.0, 0.0, 0.0, 0.0, 0.0, 0.0, 0.0, 0.0, 0.0, 1.6170039569560704E9, 2021-03-29 10:45:56.956
86.0, -19191.54296875, -238.2472381591797, -187500.015625, -57325.16015625, -7919.87109375, -26351.521484375, 7955.052734375, -413.8648986816406, 187500.0, 187500.0, 187500.0, 184300.515625, -183194.0625, 186439.25, -183282.125, 134654.640625, -0.4740000367164612, 0.7560000419616699, 0.3960000276565552, 192.0, 120.5, 24.0, 11.5, 80.0, 6.0, 48.0, 0.0, 0.0, 0.0, 1.6170039569560747E9, 2021-03-29 10:45:56.956
88.0, -18575.126953125, -236.43673706054688, -187500.015625, -57333.609375, -7924.56494140625, -26364.015625, 7937.8642578125, -434.7637634277344, 187500.0, 187500.0, 187500.0, 184326.140625, -183558.390625, 186478.1875, -183470.71875, 134684.453125, -0.4740000367164612, 0.7560000419616699, 0.3960000276565552, 192.0, 0.0, 0.0, 0.0, 0.0, 0.0, 0.0, 0.0, 0.0, 0.0, 1.6170039569560788E9, 2021-03-29 10:45:56.956
90.0, -19192.7265625, -258.6990661621094, -187500.015625, -57355.87109375, -7932.54443359375, -26376.734375, 7912.6962890625, -458.3001403808594, 187500.0, 187500.0, 187500.0, 184295.671875, -183497.671875, 186419.484375, -183376.453125, 134637.109375, -0.4740000367164612, 0.7560000419616699, 0.3960000276565552, 192.0, 0.0, 0.0, 0.0, 0.0, 0.0, 0.0, 0.0, 0.0, 0.0, 1.6170039569560828E9, 2021-03-29 10:45:56.956
92.0, -18790.529296875, -237.531982421875, -187500.015625, -57357.078125, -7956.12548828125, -26368.44140625, 7909.0078125, -447.2360534667969, 187500.0, 187500.0, 187500.0, 184292.40625, -183542.703125, 186453.0, -183311.28125, 134635.53125, -0.4740000367164612, 0.7560000419616699, 0.3960000276565552, 192.0, 0.0, 0.0, 0.0, 0.0, 0.0, 0.0, 0.0, 0.0, 0.0, 1.6170039569560869E9, 2021-03-29 10:45:56.956
94.0, -18825.912109375, -268.064453125, -187500.015625, -57383.5859375, -7946.96142578125, -26387.708984375, 7892.95947265625, -475.19805908203125, 187500.0, 187500.0, 187500.0, 184266.328125, -183483.34375, 186398.328125, -183378.515625, 134597.9375, -0.4740000367164612, 0.7560000419616699, 0.3960000276565552, 192.0, 0.0, 0.0, 0.0, 0.0, 0.0, 0.0, 0.0, 0.0, 0.0, 1.6170039569560907E9, 2021-03-29 10:45:56.956
96.0, -19154.974609375, -257.58148193359375, -187500.015625, -57391.1640625, -7952.236328125, -26379.83984375, 7900.447265625, -467.4867248535156, 187500.0, 187500.0, 187500.0, 184307.84375, -183455.71875, 186414.890625, -183292.96875, 134619.96875, -0.46400001645088196, 0.7560000419616699, 0.39400002360343933, 192.0, 120.5, 64.0, 11.5, 80.0, 6.0, 40.0, 0.0, 0.0, 0.0, 1.617003956956095E9, 2021-03-29 10:45:56.956
98.0, -18544.056640625, -241.53294372558594, -187500.015625, -57394.00390625, -7936.58984375, -26377.046875, 7933.4609375, -456.93670654296875, 187500.0, 187500.0, 187500.0, 184270.75, -183452.390625, 186379.90625, -183456.984375, 134605.3125, -0.46400001645088196, 0.7560000419616699, 0.39400002360343933, 192.0, 0.0, 0.0, 0.0, 0.0, 0.0, 0.0, 0.0, 0.0, 0.0, 1.6170039569560993E9, 2021-03-29 10:45:56.956
100.0, -19169.548828125, -255.122802734375, -187500.015625, -57417.671875, -7945.2177734375, -26392.693359375, 7901.85546875, -469.5207214355469, 187500.0, 187500.0, 187500.0, 184278.21875, -183383.625, 186358.4375, -183358.6875, 134601.390625, -0.46400001645088196, 0.7560000419616699, 0.39400002360343933, 192.0, 0.0, 0.0, 0.0, 0.0, 0.0, 0.0, 0.0, 0.0, 0.0, 1.617003956956103E9, 2021-03-29 10:45:56.956
102.0, -18801.236328125, -236.16851806640625, -187500.015625, -57423.0390625, -7938.89208984375, -26390.0546875, 7918.6865234375, -466.1903076171875, 187500.0, 187500.0, 187500.0, 184284.15625, -183434.765625, 186398.453125, -183279.15625, 134617.265625, -0.46400001645088196, 0.7560000419616699, 0.39400002360343933, 192.0, 0.0, 0.0, 0.0, 0.0, 0.0, 0.0, 0.0, 0.0, 0.0, 1.6170039569561083E9, 2021-03-29 10:45:56.956
104.0, -18804.0078125, -246.5173797607422, -187500.015625, -57427.84375, -7925.4140625, -26389.072265625, 7913.90283203125, -465.966796875, 187500.0, 187500.0, 187500.0, 184239.921875, -183376.96875, 186345.90625, -183331.96875, 134589.609375, -0.46400001645088196, 0.7560000419616699, 0.39400002360343933, 192.0, 0.0, 0.0, 0.0, 0.0, 0.0, 0.0, 0.0, 0.0, 0.0, 1.6170039569561124E9, 2021-03-29 10:45:56.956
106.0, -19148.806640625, -231.9440460205078, -187500.015625, -57419.9765625, -7931.15869140625, -26381.0703125, 7911.10888671875, -464.67041015625, 187500.0, 187500.0, 187500.0, 184292.265625, -183342.90625, 186374.609375, -183265.71875, 134631.65625, -0.4660000205039978, 0.7420000433921814, 0.3880000114440918, 192.0, 120.5, 56.0, 11.5, 24.0, 6.0, 16.0, 0.0, 0.0, 0.0, 1.6170039569561167E9, 2021-03-29 10:45:56.956
108.0, -18547.96875, -235.25210571289062, -187500.015625, -57428.91796875, -7940.3896484375, -26378.72265625, 7908.6279296875, -467.35260009765625, 187500.0, 187500.0, 187500.0, 184304.953125, -183332.328125, 186417.234375, -183457.09375, 134655.0, -0.4660000205039978, 0.7420000433921814, 0.3880000114440918, 192.0, 0.0, 0.0, 0.0, 0.0, 0.0, 0.0, 0.0, 0.0, 0.0, 1.6170039569561207E9, 2021-03-29 10:45:56.956
110.0, -19171.984375, -233.48631286621094, -187500.015625, -57414.9453125, -7915.95947265625, -26365.021484375, 7930.890625, -454.9026794433594, 187500.0, 187500.0, 187500.0, 184278.765625, -183182.515625, 186377.890625, -183355.78125, 134646.5625, -0.4660000205039978, 0.7420000433921814, 0.3880000114440918, 192.0, 0.0, 0.0, 0.0, 0.0, 0.0, 0.0, 0.0, 0.0, 0.0, 1.6170039569561248E9, 2021-03-29 10:45:56.956
112.0, -18805.259765625, -237.44256591796875, -187500.015625, -57426.92578125, -7925.0791015625, -26375.572265625, 7922.17333984375, -466.16796875, 187500.0, 187500.0, 187500.0, 184340.65625, -183437.40625, 186448.765625, -183257.859375, 134714.03125, -0.4660000205039978, 0.7420000433921814, 0.3880000114440918, 192.0, 0.0, 0.0, 0.0, 0.0, 0.0, 0.0, 0.0, 0.0, 0.0, 1.6170039569561288E9, 2021-03-29 10:45:56.956
114.0, -18780.5390625, -265.4493103027344, -187500.015625, -57435.7109375, -7913.2099609375, -26381.29296875, 7931.4716796875, -468.2466735839844, 187500.0, 187500.0, 187500.0, 184247.34375, -183539.75, 186414.171875, -183306.625, 134665.203125, -0.4660000205039978, 0.7420000433921814, 0.3880000114440918, 192.0, 0.0, 0.0, 0.0, 0.0, 0.0, 0.0, 0.0, 0.0, 0.0, 1.617003956956133E9, 2021-03-29 10:45:56.956
116.0, -19164.25, -256.6650695800781, -187500.015625, -57422.14453125, -7910.8408203125, -26363.412109375, 7945.50830078125, -449.4712219238281, 187500.0, 187500.0, 187500.0, 184260.484375, -183496.78125, 186428.546875, -183260.875, 134705.578125, -0.47600001096725464, 0.7520000338554382, 0.39400002360343933, 192.0, 120.5, 16.0, 11.5, 64.0, 6.0, 40.0, 0.0, 0.0, 0.0, 1.6170039569561372E9, 2021-03-29 10:45:56.956
118.0, -18588.40234375, -270.36669921875, -187500.015625, -57428.3359375, -7914.8642578125, -26373.58203125, 7940.54638671875, -461.20587158203125, 187500.0, 187500.0, 187500.0, 184231.203125, -183483.71875, 186464.390625, -183461.90625, 134722.28125, -0.47600001096725464, 0.7520000338554382, 0.39400002360343933, 192.0, 0.0, 0.0, 0.0, 0.0, 0.0, 0.0, 0.0, 0.0, 0.0, 1.6170039569561412E9, 2021-03-29 10:45:56.956
120.0, -19174.421875, -289.2315673828125, -187500.015625, -57424.17578125, -7907.4658203125, -26363.837890625, 7936.16552734375, -452.2204895019531, 187500.0, 187500.0, 187500.0, 184190.1875, -183397.421875, 186453.6875, -183372.5, 134711.859375, -0.47600001096725464, 0.7520000338554382, 0.39400002360343933, 192.0, 0.0, 0.0, 0.0, 0.0, 0.0, 0.0, 0.0, 0.0, 0.0, 1.617003957436614E9, 2021-03-29 10:45:57.436
122.0, -18821.576171875, -287.95751953125, -187500.015625, -57422.65625, -7916.13818359375, -26354.5390625, 7945.95556640625, -455.26031494140625, 187500.0, 187500.0, 187500.0, 184185.75, -183424.28125, 186503.0, -183298.640625, 134749.0, -0.47600001096725464, 0.7520000338554382, 0.39400002360343933, 192.0, 0.0, 0.0, 0.0, 0.0, 0.0, 0.0, 0.0, 0.0, 0.0, 1.6170039574367588E9, 2021-03-29 10:45:57.436
124.0, -18823.609375, -298.01580810546875, -187500.015625, -57415.73046875, -7896.13330078125, -26340.546875, 7936.388671875, -452.2428283691406, 187500.0, 187500.0, 187500.0, 184105.546875, -183350.640625, 186444.125, -183358.578125, 134691.203125, -0.47600001096725464, 0.7520000338554382, 0.39400002360343933, 192.0, 0.0, 0.0, 0.0, 0.0, 0.0, 0.0, 0.0, 0.0, 0.0, 1.6170039574367628E9, 2021-03-29 10:45:57.436
126.0, -19178.287109375, -281.0284729003906, -187500.015625, -57406.98828125, -7901.74365234375, -26320.02734375, 7942.423828125, -433.64617919921875, 187500.0, 187500.0, 187500.0, 184175.328125, -183299.109375, 186521.25, -183280.40625, 134747.90625, -0.4700000286102295, 0.7600000500679016, 0.4020000100135803, 192.0, 120.5, 40.0, 11.5, 96.0, 6.0, 72.0, 0.0, 0.0, 0.0, 1.6170039574367666E9, 2021-03-29 10:45:57.436
128.0, -18632.078125, -259.7272644042969, -187500.015625, -57378.53515625, -7885.58349609375, -26291.1484375, 8004.4501953125, -408.00872802734375, 187500.0, 187500.0, 187500.0, 184192.734375, -183282.578125, 186501.765625, -183460.875, 134754.0625, -0.4700000286102295, 0.7600000500679016, 0.4020000100135803, 192.0, 0.0, 0.0, 0.0, 0.0, 0.0, 0.0, 0.0, 0.0, 0.0, 1.617003957436771E9, 2021-03-29 10:45:57.436
130.0, -19196.146484375, -259.16845703125, -187500.015625, -57382.4453125, -7890.14306640625, -26295.306640625, 7990.033203125, -412.7026062011719, 187500.0, 187500.0, 187500.0, 184227.71875, -183120.859375, 186525.296875, -183377.34375, 134780.234375, -0.4700000286102295, 0.7600000500679016, 0.4020000100135803, 192.0, 0.0, 0.0, 0.0, 0.0, 0.0, 0.0, 0.0, 0.0, 0.0, 1.6170039574367745E9, 2021-03-29 10:45:57.436
132.0, -18900.322265625, -227.2948760986328, -187500.015625, -57376.74609375, -7886.0751953125, -26294.92578125, 7995.46435546875, -419.6986999511719, 187500.0, 187500.0, 187500.0, 184285.09375, -183417.84375, 186555.1875, -183298.6875, 134792.5625, -0.4700000286102295, 0.7600000500679016, 0.4020000100135803, 192.0, 0.0, 0.0, 0.0, 0.0, 0.0, 0.0, 0.0, 0.0, 0.0, 1.6170039574367783E9, 2021-03-29 10:45:57.436
134.0, -18835.748046875, -224.9479522705078, -187500.015625, -57373.08203125, -7877.044921875, -26292.310546875, 7987.12744140625, -407.3381652832031, 187500.0, 187500.0, 187500.0, 184310.125, -183549.75, 186547.34375, -183375.265625, 134770.28125, -0.4700000286102295, 0.7600000500679016, 0.4020000100135803, 192.0, 0.0, 0.0, 0.0, 0.0, 0.0, 0.0, 0.0, 0.0, 0.0, 1.6170039574367824E9, 2021-03-29 10:45:57.436
136.0, -19184.0546875, -184.51364135742188, -187500.015625, -57356.921875, -7874.34033203125, -26282.095703125, 8004.583984375, -392.3625183105469, 187500.0, 187500.0, 187500.0, 184344.75, -183522.171875, 186534.84375, -183295.5, 134763.921875, -0.46000000834465027, 0.7640000581741333, 0.4000000059604645, 192.0, 120.5, 80.0, 11.5, 112.0, 6.0, 64.0, 0.0, 0.0, 0.0, 1.6170039574367862E9, 2021-03-29 10:45:57.436
138.0, -18606.015625, -175.68470764160156, -187500.015625, -57349.25390625, -7874.6533203125, -26283.884765625, 8002.50537109375, -399.9844665527344, 187500.0, 187500.0, 187500.0, 184360.890625, -183541.640625, 186519.5625, -183480.328125, 134758.421875, -0.46000000834465027, 0.7640000581741333, 0.4000000059604645, 192.0, 0.0, 0.0, 0.0, 0.0, 0.0, 0.0, 0.0, 0.0, 0.0, 1.6170039574367948E9, 2021-03-29 10:45:57.436
140.0, -19103.0078125, -200.27162170410156, -187500.015625, -57374.9140625, -7884.19775390625, -26303.263671875, 7977.06884765625, -427.1865234375, 187500.0, 187500.0, 187500.0, 184305.328125, -183480.03125, 186431.296875, -183407.703125, 134677.25, -0.46000000834465027, 0.7640000581741333, 0.4000000059604645, 192.0, 0.0, 0.0, 0.0, 0.0, 0.0, 0.0, 0.0, 0.0, 0.0, 1.6170039574367986E9, 2021-03-29 10:45:57.436
142.0, -18809.908203125, -175.3717803955078, -187500.015625, -57368.8125, -7888.73486328125, -26299.330078125, 7990.4580078125, -419.43048095703125, 187500.0, 187500.0, 187500.0, 184342.59375, -183522.59375, 186467.40625, -183330.5, 134683.53125, -0.46000000834465027, 0.7640000581741333, 0.4000000059604645, 192.0, 0.0, 0.0, 0.0, 0.0, 0.0, 0.0, 0.0, 0.0, 0.0, 1.6170039574368024E9, 2021-03-29 10:45:57.436
144.0, -18731.990234375, -174.00833129882812, -187500.015625, -57360.00390625, -7870.00439453125, -26298.16796875, 7996.47021484375, -416.5247497558594, 187500.0, 187500.0, 187500.0, 184321.203125, -183478.5625, 186381.0, -183394.328125, 134625.40625, -0.46000000834465027, 0.7640000581741333, 0.4000000059604645, 192.0, 0.0, 0.0, 0.0, 0.0, 0.0, 0.0, 0.0, 0.0, 0.0, 1.6170039574368062E9, 2021-03-29 10:45:57.436
146.0, -19119.94921875, -141.50889587402344, -187500.015625, -57342.50390625, -7861.7119140625, -26275.703125, 8010.88720703125, -404.20892333984375, 187500.0, 187500.0, 187500.0, 184405.109375, -183438.546875, 186443.828125, -183299.296875, 134686.40625, -0.4620000123977661, 0.7680000066757202, 0.3960000276565552, 192.0, 120.5, 72.0, 12.0, 0.0, 6.0, 48.0, 0.0, 0.0, 0.0, 1.61700395743681E9, 2021-03-29 10:45:57.436
148.0, -18557.021484375, -134.95982360839844, -187500.015625, -57350.8203125, -7875.033203125, -26277.4921875, 7982.4111328125, -427.6782531738281, 187500.0, 187500.0, 187500.0, 184420.953125, -183452.609375, 186454.84375, -183465.296875, 134688.453125, -0.4620000123977661, 0.7680000066757202, 0.3960000276565552, 192.0, 0.0, 0.0, 0.0, 0.0, 0.0, 0.0, 0.0, 0.0, 0.0, 1.617003957436814E9, 2021-03-29 10:45:57.436
150.0, -19026.67578125, -170.40969848632812, -187500.015625, -57373.05859375, -7886.61181640625, -26301.20703125, 7955.70068359375, -447.2807312011719, 187500.0, 187500.0, 187500.0, 184387.53125, -183382.015625, 186367.8125, -183385.109375, 134633.453125, -0.4620000123977661, 0.7680000066757202, 0.3960000276565552, 192.0, 0.0, 0.0, 0.0, 0.0, 0.0, 0.0, 0.0, 0.0, 0.0, 1.6170039574368176E9, 2021-03-29 10:45:57.436
152.0, -18741.736328125, -147.67796325683594, -187500.015625, -57363.3125, -7885.76220703125, -26289.5390625, 7972.68798828125, -435.8366394042969, 187500.0, 187500.0, 187500.0, 184369.3125, -183402.34375, 186349.96875, -183290.21875, 134594.28125, -0.4620000123977661, 0.7680000066757202, 0.3960000276565552, 192.0, 0.0, 0.0, 0.0, 0.0, 0.0, 0.0, 0.0, 0.0, 0.0, 1.6170039574368217E9, 2021-03-29 10:45:57.436
154.0, -18699.021484375, -154.2493896484375, -187500.015625, -57368.3203125, -7860.080078125, -26292.310546875, 8012.0048828125, -437.334228515625, 187500.0, 187500.0, 187500.0, 184378.296875, -183344.46875, 186383.25, -183344.9375, 134606.53125, -0.4620000123977661, 0.7680000066757202, 0.3960000276565552, 192.0, 0.0, 0.0, 0.0, 0.0, 0.0, 0.0, 0.0, 0.0, 0.0, 1.6170039574368253E9, 2021-03-29 10:45:57.436
156.0, -19052.6484375, -136.50210571289062, -187500.015625, -57361.0546875, -7872.462890625, -26284.623046875, 8006.95361328125, -415.1836242675781, 187500.0, 187500.0, 187500.0, 184420.609375, -183285.5, 186389.5625, -183270.953125, 134631.609375, -0.46800002455711365, 0.7660000324249268, 0.3880000114440918, 192.0, 120.5, 48.0, 11.5, 120.0, 6.0, 16.0, 0.0, 0.0, 0.0, 1.617003957436829E9, 2021-03-29 10:45:57.436
158.0, -18502.572265625, -121.8840560913086, -187500.015625, -57358.15234375, -7876.1064453125, -26294.904296875, 8000.2255859375, -419.87750244140625, 187500.0, 187500.0, 187500.0, 184447.328125, -183277.859375, 186390.390625, -183455.421875, 134642.90625, -0.46800002455711365, 0.7660000324249268, 0.3880000114440918, 192.0, 0.0, 0.0, 0.0, 0.0, 0.0, 0.0, 0.0, 0.0, 0.0, 1.617003957436833E9, 2021-03-29 10:45:57.436
160.0, -19030.251953125, -120.00650787353516, -187500.015625, -57346.88671875, -7856.21337890625, -26284.01953125, 8016.810546875, -414.7142639160156, 187500.0, 187500.0, 187500.0, 184473.34375, -183114.359375, 186379.140625, -183375.625, 134658.59375, -0.46800002455711365, 0.7660000324249268, 0.3880000114440918, 192.0, 0.0, 0.0, 0.0, 0.0, 0.0, 0.0, 0.0, 0.0, 0.0, 1.6170039574368367E9, 2021-03-29 10:45:57.436
162.0, -18768.4453125, -105.83550262451172, -187500.015625, -57352.98828125, -7874.98876953125, -26282.990234375, 7998.92919921875, -427.3206481933594, 187500.0, 187500.0, 187500.0, 184540.75, -183410.96875, 186428.34375, -183277.890625, 134708.1875, -0.46800002455711365, 0.7660000324249268, 0.3880000114440918, 192.0, 0.0, 0.0, 0.0, 0.0, 0.0, 0.0, 0.0, 0.0, 0.0, 1.6170039574368403E9, 2021-03-29 10:45:57.436
164.0, -18687.689453125, -132.43408203125, -187500.015625, -57365.125, -7866.96435546875, -26288.265625, 7992.15673828125, -444.4197082519531, 187500.0, 187500.0, 187500.0, 184516.546875, -183558.59375, 186420.3125, -183351.578125, 134682.578125, -0.46800002455711365, 0.7660000324249268, 0.3880000114440918, 192.0, 0.0, 0.0, 0.0, 0.0, 0.0, 0.0, 0.0, 0.0, 0.0, 1.6170039574368443E9, 2021-03-29 10:45:57.436
166.0, -19067.4453125, -121.0346908569336, -187500.015625, -57355.40234375, -7860.37060546875, -26258.537109375, 8009.90380859375, -417.6199645996094, 187500.0, 187500.0, 187500.0, 184522.609375, -183500.546875, 186420.515625, -183277.375, 134680.234375, -0.4700000286102295, 0.7600000500679016, 0.37800002098083496, 192.0, 120.5, 40.0, 11.5, 96.0, 5.5, 104.0, 0.0, 0.0, 0.0, 1.617003957436848E9, 2021-03-29 10:45:57.436
168.0, -18522.734375, -121.77230072021484, -187500.015625, -57353.8359375, -7864.75146484375, -26255.275390625, 8001.65625, -421.0174560546875, 187500.0, 187500.0, 187500.0, 184588.390625, -183508.015625, 186470.625, -183462.328125, 134736.359375, -0.4700000286102295, 0.7600000500679016, 0.37800002098083496, 192.0, 0.0, 0.0, 0.0, 0.0, 0.0, 0.0, 0.0, 0.0, 0.0, 1.6170039574368527E9, 2021-03-29 10:45:57.436
170.0, -18993.70703125, -135.4739227294922, -187500.015625, -57365.28125, -7857.73291015625, -26266.31640625, 7996.0234375, -433.64617919921875, 187500.0, 187500.0, 187500.0, 184509.984375, -183434.09375, 186383.546875, -183390.765625, 134663.875, -0.4700000286102295, 0.7600000500679016, 0.37800002098083496, 192.0, 0.0, 0.0, 0.0, 0.0, 0.0, 0.0, 0.0, 0.0, 0.0, 1.6170039574368567E9, 2021-03-29 10:45:57.436
172.0, -18772.357421875, -116.36317443847656, -187500.015625, -57361.4140625, -7864.57275390625, -26270.2734375, 7989.47412109375, -442.5868835449219, 187500.0, 187500.0, 187500.0, 184559.953125, -183462.578125, 186429.546875, -183299.546875, 134694.84375, -0.4700000286102295, 0.7600000500679016, 0.37800002098083496, 192.0, 0.0, 0.0, 0.0, 0.0, 0.0, 0.0, 0.0, 0.0, 0.0, 1.6170039574368615E9, 2021-03-29 10:45:57.436
174.0, -18668.109375, -127.1814193725586, -187500.015625, -57371.91796875, -7858.15771484375, -26296.892578125, 7982.72412109375, -451.9299011230469, 187500.0, 187500.0, 187500.0, 184561.40625, -183427.265625, 186395.59375, -183365.40625, 134678.125, -0.4700000286102295, 0.7600000500679016, 0.37800002098083496, 192.0, 0.0, 0.0, 0.0, 0.0, 0.0, 0.0, 0.0, 0.0, 0.0, 1.6170039574368656E9, 2021-03-29 10:45:57.436
176.0, -19011.8125, -114.15035247802734, -187500.015625, -57365.90625, -7872.37353515625, -26310.796875, 7966.11669921875, -468.38079833984375, 187500.0, 187500.0, 187500.0, 184570.90625, -183376.40625, 186360.90625, -183280.28125, 134652.328125, -0.46400001645088196, 0.7600000500679016, 0.3840000033378601, 192.0, 120.5, 64.0, 11.5, 96.0, 6.0, 0.0, 0.0, 0.0, 0.0, 1.6170039574368691E9, 2021-03-29 10:45:57.436
178.0, -18503.82421875, -100.58284759521484, -187500.015625, -57352.80859375, -7856.302734375, -26284.66796875, 8003.421875, -440.2846374511719, 187500.0, 187500.0, 187500.0, 184624.953125, -183392.09375, 186438.796875, -183461.4375, 134684.203125, -0.46400001645088196, 0.7600000500679016, 0.3840000033378601, 192.0, 0.0, 0.0, 0.0, 0.0, 0.0, 0.0, 0.0, 0.0, 0.0, 1.617003957436873E9, 2021-03-29 10:45:57.436
180.0, -18940.599609375, -137.75379943847656, -187500.015625, -57383.2734375, -7864.41650390625, -26312.607421875, 7994.9951171875, -480.27191162109375, 187500.0, 187500.0, 187500.0, 184564.140625, -183330.859375, 186363.609375, -183395.828125, 134634.0, -0.46400001645088196, 0.7600000500679016, 0.3840000033378601, 192.0, 0.0, 0.0, 0.0, 0.0, 0.0, 0.0, 0.0, 0.0, 0.0, 1.6170039574368773E9, 2021-03-29 10:45:57.436
182.0, -18693.6796875, -105.43317413330078, -187500.015625, -57357.01171875, -7881.2470703125, -26293.294921875, 7992.46923828125, -463.0387268066406, 187500.0, 187500.0, 187500.0, 184564.25, -183357.65625, 186350.4375, -183296.609375, 134620.234375, -0.46400001645088196, 0.7600000500679016, 0.3840000033378601, 192.0, 0.0, 0.0, 0.0, 0.0, 0.0, 0.0, 0.0, 0.0, 0.0, 1.6170039574368808E9, 2021-03-29 10:45:57.436
184.0, -18605.12109375, -122.91223907470703, -187500.015625, -57367.515625, -7870.76416015625, -26301.654296875, 7989.02734375, -473.0970153808594, 187500.0, 187500.0, 187500.0, 184578.109375, -183316.171875, 186365.0625, -183355.734375, 134636.171875, -0.46400001645088196, 0.7600000500679016, 0.3840000033378601, 192.0, 0.0, 0.0, 0.0, 0.0, 0.0, 0.0, 0.0, 0.0, 0.0, 1.6170039574368849E9, 2021-03-29 10:45:57.436
186.0, -18970.796875, -113.25628662109375, -187500.015625, -57363.46875, -7877.13427734375, -26292.7578125, 7988.46826171875, -476.24859619140625, 187500.0, 187500.0, 187500.0, 184584.046875, -183255.109375, 186352.609375, -183268.71875, 134636.59375, -0.4620000123977661, 0.7600000500679016, 0.3840000033378601, 192.0, 120.5, 72.0, 11.5, 96.0, 6.0, 0.0, 0.0, 0.0, 0.0, 1.6170039574368885E9, 2021-03-29 10:45:57.436
188.0, -18427.224609375, -101.18634033203125, -187500.015625, -57363.515625, -7881.93994140625, -26284.48828125, 7984.13232421875, -464.26806640625, 187500.0, 187500.0, 187500.0, 184617.15625, -183265.40625, 186400.328125, -183455.765625, 134654.859375, -0.4620000123977661, 0.7600000500679016, 0.3840000033378601, 192.0, 0.0, 0.0, 0.0, 0.0, 0.0, 0.0, 0.0, 0.0, 0.0, 1.6170039574368925E9, 2021-03-29 10:45:57.436
190.0, -18915.341796875, -121.77230072021484, -187500.015625, -57375.98828125, -7885.15869140625, -26297.966796875, 7972.77734375, -478.57318115234375, 187500.0, 187500.0, 187500.0, 184637.890625, -183118.25, 186383.953125, -183388.59375, 134636.953125, -0.4620000123977661, 0.7600000500679016, 0.3840000033378601, 192.0, 0.0, 0.0, 0.0, 0.0, 0.0, 0.0, 0.0, 0.0, 0.0, 1.617003957436896E9, 2021-03-29 10:45:57.436
192.0, -18694.23828125, -104.56145477294922, -187500.015625, -57365.52734375, -7884.2421875, -26294.345703125, 7987.216796875, -473.67816162109375, 187500.0, 187500.0, 187500.0, 184661.390625, -183398.6875, 186388.671875, -183277.296875, 134668.546875, -0.4620000123977661, 0.7600000500679016, 0.3840000033378601, 192.0, 0.0, 0.0, 0.0, 0.0, 0.0, 0.0, 0.0, 0.0, 0.0, 1.6170039574369E9, 2021-03-29 10:45:57.436
194.0, -18573.44921875, -145.8674774169922, -187500.015625, -57403.546875, -7876.93310546875, -26332.455078125, 7968.3740234375, -504.4788513183594, 187500.0, 187500.0, 187500.0, 184645.390625, -183559.046875, 186387.078125, -183342.234375, 134664.140625, -0.4620000123977661, 0.7600000500679016, 0.3840000033378601, 192.0, 0.0, 0.0, 0.0, 0.0, 0.0, 0.0, 0.0, 0.0, 0.0, 1.6170039574369037E9, 2021-03-29 10:45:57.436
196.0, -18952.84765625, -149.44375610351562, -187500.015625, -57400.28515625, -7883.3037109375, -26330.666015625, 7976.2421875, -495.0464172363281, 187500.0, 187500.0, 187500.0, 184637.109375, -183495.046875, 186372.765625, -183261.453125, 134654.5, -0.4660000205039978, 0.7660000324249268, 0.39400002360343933, 192.0, 120.5, 56.0, 11.5, 120.0, 6.0, 40.0, 0.0, 0.0, 0.0, 1.6170039574369075E9, 2021-03-29 10:45:57.436
198.0, -18406.4375, -137.46322631835938, -187500.015625, -57393.66796875, -7890.99267578125, -26326.64453125, 7979.6396484375, -489.81610107421875, 187500.0, 187500.0, 187500.0, 184629.1875, -183496.03125, 186368.015625, -183450.6875, 134645.609375, -0.4660000205039978, 0.7660000324249268, 0.39400002360343933, 192.0, 0.0, 0.0, 0.0, 0.0, 0.0, 0.0, 0.0, 0.0, 0.0, 1.617003957436911E9, 2021-03-29 10:45:57.436
200.0, -18889.48046875, -150.27076721191406, -187500.015625, -57400.10546875, -7873.53564453125, -26332.25390625, 7983.037109375, -501.5731201171875, 187500.0, 187500.0, 187500.0, 184667.375, -183420.953125, 186387.03125, -183389.3125, 134669.71875, -0.4660000205039978, 0.7660000324249268, 0.39400002360343933, 192.0, 0.0, 0.0, 0.0, 0.0, 0.0, 0.0, 0.0, 0.0, 0.0, 1.617003957436915E9, 2021-03-29 10:45:57.436
202.0, -18659.83984375, -129.84127807617188, -187500.015625, -57390.24609375, -7884.95751953125, -26317.61328125, 7974.56591796875, -499.11444091796875, 187500.0, 187500.0, 187500.0, 184658.140625, -183442.609375, 186360.5625, -183292.59375, 134664.5625, -0.4660000205039978, 0.7660000324249268, 0.39400002360343933, 192.0, 0.0, 0.0, 0.0, 0.0, 0.0, 0.0, 0.0, 0.0, 0.0, 1.6170039574369187E9, 2021-03-29 10:45:57.436
204.0, -18539.83203125, -152.19302368164062, -187500.015625, -57403.97265625, -7875.94970703125, -26325.19140625, 7982.8134765625, -503.3165588378906, 187500.0, 187500.0, 187500.0, 184678.828125, -183404.328125, 186400.875, -183364.625, 134686.625, -0.4660000205039978, 0.7660000324249268, 0.39400002360343933, 192.0, 0.0, 0.0, 0.0, 0.0, 0.0, 0.0, 0.0, 0.0, 0.0, 1.6170039574369226E9, 2021-03-29 10:45:57.436
206.0, -18902.01953125, -127.91902923583984, -187500.015625, -57388.83984375, -7882.78955078125, -26304.58203125, 7985.607421875, -486.64215087890625, 187500.0, 187500.0, 187500.0, 184675.5, -183341.203125, 186381.484375, -183270.625, 134676.03125, -0.4620000123977661, 0.7560000419616699, 0.3840000033378601, 192.0, 120.5, 72.0, 11.5, 80.0, 6.0, 0.0, 0.0, 0.0, 0.0, 1.6170039574369273E9, 2021-03-29 10:45:57.436
208.0, -18364.05859375, -123.22516632080078, -187500.015625, -57392.28125, -7883.9072265625, -26307.890625, 7980.0419921875, -498.5332946777344, 187500.0, 187500.0, 187500.0, 184694.421875, -183348.296875, 186391.09375, -183442.84375, 134688.390625, -0.4620000123977661, 0.7560000419616699, 0.3840000033378601, 192.0, 0.0, 0.0, 0.0, 0.0, 0.0, 0.0, 0.0, 0.0, 0.0, 1.6170039574369311E9, 2021-03-29 10:45:57.436
210.0, -18821.8671875, -132.3446807861328, -187500.015625, -57401.24609375, -7877.35791015625, -26311.04296875, 7992.3798828125, -504.43414306640625, 187500.0, 187500.0, 187500.0, 184682.203125, -183273.328125, 186365.515625, -183378.0, 134664.828125, -0.4620000123977661, 0.7560000419616699, 0.3840000033378601, 192.0, 0.0, 0.0, 0.0, 0.0, 0.0, 0.0, 0.0, 0.0, 0.0, 1.6170039574369347E9, 2021-03-29 10:45:57.436
212.0, -18593.56640625, -118.64305877685547, -187500.015625, -57390.47265625, -7883.79541015625, -26301.54296875, 8008.09326171875, -481.32244873046875, 187500.0, 187500.0, 187500.0, 184700.921875, -183300.171875, 186400.953125, -183277.59375, 134682.359375, -0.4620000123977661, 0.7560000419616699, 0.3840000033378601, 192.0, 0.0, 0.0, 0.0, 0.0, 0.0, 0.0, 0.0, 0.0, 0.0, 1.6170039574369388E9, 2021-03-29 10:45:57.436
214.0, -18428.654296875, -123.73925018310547, -187500.015625, -57396.21484375, -7873.37939453125, -26331.515625, 7998.34814453125, -504.3894348144531, 187500.0, 187500.0, 187500.0, 184674.375, -183258.109375, 186349.4375, -183343.703125, 134650.640625, -0.4620000123977661, 0.7560000419616699, 0.3840000033378601, 192.0, 0.0, 0.0, 0.0, 0.0, 0.0, 0.0, 0.0, 0.0, 0.0, 1.6170039574369423E9, 2021-03-29 10:45:57.436
216.0, -18824.326171875, -92.51387023925781, -187500.015625, -57373.59375, -7870.8984375, -26311.7578125, 8017.9951171875, -487.4244689941406, 187500.0, 187500.0, 187500.0, 184696.140625, -183132.59375, 186352.828125, -183247.890625, 134645.765625, -0.4580000340938568, 0.7640000581741333, 0.39400002360343933, 192.0, 120.5, 88.0, 11.5, 112.0, 6.0, 40.0, 0.0, 0.0, 0.0, 1.6170039574369464E9, 2021-03-29 10:45:57.436
218.0, -18338.935546875, -82.58969116210938, -187500.015625, -57371.2265625, -7867.634765625, -26318.685546875, 8029.46142578125, -488.206787109375, 187500.0, 187500.0, 187500.0, 184798.25, -183542.328125, 186467.796875, -183429.96875, 134745.09375, -0.4580000340938568, 0.7640000581741333, 0.39400002360343933, 192.0, 0.0, 0.0, 0.0, 0.0, 0.0, 0.0, 0.0, 0.0, 0.0, 1.61700395743695E9, 2021-03-29 10:45:57.436
220.0, -18790.037109375, -107.10955810546875, -187500.015625, -57387.25390625, -7860.01318359375, -26322.84375, 8021.9736328125, -494.1300048828125, 187500.0, 187500.0, 187500.0, 184780.046875, -183523.953125, 186412.578125, -183378.671875, 134728.0, -0.4580000340938568, 0.7640000581741333, 0.39400002360343933, 192.0, 0.0, 0.0, 0.0, 0.0, 0.0, 0.0, 0.0, 0.0, 0.0, 1.617003957436954E9, 2021-03-29 10:45:57.436
222.0, -18569.3359375, -97.20773315429688, -187500.015625, -57388.97265625, -7865.265625, -26319.669921875, 8020.5654296875, -496.5216369628906, 187500.0, 187500.0, 187500.0, 184802.515625, -183553.015625, 186434.84375, -183282.0, 134736.71875, -0.4580000340938568, 0.7640000581741333, 0.39400002360343933, 192.0, 0.0, 0.0, 0.0, 0.0, 0.0, 0.0, 0.0, 0.0, 0.0, 1.6170039574369576E9, 2021-03-29 10:45:57.436
224.0, -18428.275390625, -108.29419708251953, -187500.015625, -57386.203125, -7852.59228515625, -26319.1328125, 8021.794921875, -500.05322265625, 187500.0, 187500.0, 187500.0, 184783.1875, -183510.078125, 186413.03125, -183350.09375, 134715.953125, -0.4580000340938568, 0.7640000581741333, 0.39400002360343933, 192.0, 0.0, 0.0, 0.0, 0.0, 0.0, 0.0, 0.0, 0.0, 0.0, 1.6170039574369614E9, 2021-03-29 10:45:57.436
226.0, -18807.205078125, -105.50022888183594, -187500.015625, -57388.7734375, -7863.00830078125, -26314.015625, 8023.7841796875, -497.3710021972656, 187500.0, 187500.0, 187500.0, 184789.53125, -183437.765625, 186414.171875, -183257.625, 134715.125, -0.46000000834465027, 0.7660000324249268, 0.39000001549720764, 192.0, 120.5, 80.0, 11.5, 120.0, 6.0, 24.0, 0.0, 0.0, 0.0, 1.6170039574369652E9, 2021-03-29 10:45:57.436
228.0, -18286.38671875, -105.54493713378906, -187500.015625, -57386.515625, -7865.42236328125, -26302.19140625, 8025.7734375, -494.3758544921875, 187500.0, 187500.0, 187500.0, 184829.03125, -183440.203125, 186439.984375, -183453.078125, 134751.71875, -0.46000000834465027, 0.7660000324249268, 0.39000001549720764, 192.0, 0.0, 0.0, 0.0, 0.0, 0.0, 0.0, 0.0, 0.0, 0.0, 1.6170039574369693E9, 2021-03-29 10:45:57.436
230.0, -18699.177734375, -137.46322631835938, -187500.015625, -57410.921875, -7874.2958984375, -26315.466796875, 8011.4462890625, -506.8034362792969, 187500.0, 187500.0, 187500.0, 184752.3125, -183363.21875, 186377.15625, -183402.921875, 134690.4375, -0.46000000834465027, 0.7660000324249268, 0.39000001549720764, 192.0, 0.0, 0.0, 0.0, 0.0, 0.0, 0.0, 0.0, 0.0, 0.0, 1.617003957436973E9, 2021-03-29 10:45:57.436
232.0, -18504.115234375, -106.3272476196289, -187500.015625, -57398.71875, -7874.0498046875, -26320.7421875, 8026.6005859375, -505.5517272949219, 187500.0, 187500.0, 187500.0, 184775.0, -183368.90625, 186402.09375, -183293.015625, 134707.40625, -0.46000000834465027, 0.7660000324249268, 0.39000001549720764, 192.0, 0.0, 0.0, 0.0, 0.0, 0.0, 0.0, 0.0, 0.0, 0.0, 1.617003957436977E9, 2021-03-29 10:45:57.436
234.0, -18354.513671875, -129.05897521972656, -187500.015625, -57408.59765625, -7871.255859375, -26337.08203125, 8020.7890625, -513.24072265625, 187500.0, 187500.0, 187500.0, 184794.15625, -183316.5, 186379.984375, -183357.28125, 134694.78125, -0.46000000834465027, 0.7660000324249268, 0.39000001549720764, 192.0, 0.0, 0.0, 0.0, 0.0, 0.0, 0.0, 0.0, 0.0, 0.0, 1.6170039574369805E9, 2021-03-29 10:45:57.436
236.0, -18748.732421875, -108.0706787109375, -187500.015625, -57389.64453125, -7872.5078125, -26327.626953125, 8025.46044921875, -508.5245056152344, 187500.0, 187500.0, 187500.0, 184832.71875, -183174.265625, 186409.09375, -183253.390625, 134726.65625, -0.4580000340938568, 0.7700000405311584, 0.3960000276565552, 192.0, 120.5, 88.0, 12.0, 8.0, 6.0, 48.0, 0.0, 0.0, 0.0, 1.6170039574369843E9, 2021-03-29 10:45:57.436
238.0, -18184.283203125, -110.05998229980469, -187500.015625, -57394.42578125, -7889.8974609375, -26333.953125, 8012.5859375, -522.1814575195312, 187500.0, 187500.0, 187500.0, 184814.828125, -183534.75, 186423.328125, -183424.0625, 134712.65625, -0.4580000340938568, 0.7700000405311584, 0.3960000276565552, 192.0, 0.0, 0.0, 0.0, 0.0, 0.0, 0.0, 0.0, 0.0, 0.0, 1.617003957436988E9, 2021-03-29 10:45:57.436
240.0, -18617.28125, -120.20767974853516, -187500.015625, -57395.90234375, -7867.9033203125, -26330.578125, 8020.11865234375, -524.885986328125, 187500.0, 187500.0, 187500.0, 184769.53125, -183488.75, 186365.1875, -183367.203125, 134674.75, -0.4580000340938568, 0.7700000405311584, 0.3960000276565552, 192.0, 0.0, 0.0, 0.0, 0.0, 0.0, 0.0, 0.0, 0.0, 0.0, 1.6170039579167814E9, 2021-03-29 10:45:57.916
242.0, -18445.6640625, -96.00074005126953, -187500.015625, -57376.90234375, -7880.017578125, -26318.59765625, 8025.48291015625, -515.744140625, 187500.0, 187500.0, 187500.0, 184814.828125, -183501.3125, 186444.984375, -183255.546875, 134724.171875, -0.4580000340938568, 0.7700000405311584, 0.3960000276565552, 192.0, 0.0, 0.0, 0.0, 0.0, 0.0, 0.0, 0.0, 0.0, 0.0, 1.6170039579167864E9, 2021-03-29 10:45:57.916
244.0, -18281.982421875, -88.66936492919922, -187500.015625, -57373.9296875, -7864.97509765625, -26327.73828125, 8016.87744140625, -532.9773559570312, 187500.0, 187500.0, 187500.0, 184812.28125, -183456.34375, 186430.484375, -183320.28125, 134708.8125, -0.4580000340938568, 0.7700000405311584, 0.3960000276565552, 192.0, 0.0, 0.0, 0.0, 0.0, 0.0, 0.0, 0.0, 0.0, 0.0, 1.6170039579167905E9, 2021-03-29 10:45:57.916
246.0, -18682.951171875, -99.04057312011719, -187500.015625, -57384.03515625, -7865.75732421875, -26321.904296875, 8029.66259765625, -526.0259399414062, 187500.0, 187500.0, 187500.0, 184839.125, -183384.75, 186423.78125, -183235.640625, 134721.875, -0.4620000123977661, 0.7640000581741333, 0.39400002360343933, 192.0, 120.5, 72.0, 11.5, 112.0, 6.0, 40.0, 0.0, 0.0, 0.0, 1.617003957916794E9, 2021-03-29 10:45:57.916
248.0, -18132.71875, -98.92881774902344, -187500.015625, -57391.4765625, -7866.6962890625, -26324.1171875, 8026.10888671875, -522.6954956054688, 187500.0, 187500.0, 187500.0, 184813.0625, -183386.609375, 186434.640625, -183431.890625, 134716.109375, -0.4620000123977661, 0.7640000581741333, 0.39400002360343933, 192.0, 0.0, 0.0, 0.0, 0.0, 0.0, 0.0, 0.0, 0.0, 0.0, 1.617003957916798E9, 2021-03-29 10:45:57.916
250.0, -18558.318359375, -107.84716033935547, -187500.015625, -57396.28125, -7860.37060546875, -26333.39453125, 8030.89208984375, -529.8257446289062, 187500.0, 187500.0, 187500.0, 184814.953125, -183309.25, 186365.703125, -183379.5, 134692.375, -0.4620000123977661, 0.7640000581741333, 0.39400002360343933, 192.0, 0.0, 0.0, 0.0, 0.0, 0.0, 0.0, 0.0, 0.0, 0.0, 1.617003957916802E9, 2021-03-29 10:45:57.916
252.0, -18385.896484375, -91.19511413574219, -187500.015625, -57395.4765625, -7873.20068359375, -26323.849609375, 8006.70751953125, -520.7509155273438, 187500.0, 187500.0, 187500.0, 184820.828125, -183323.859375, 186409.1875, -183263.953125, 134704.53125, -0.4620000123977661, 0.7640000581741333, 0.39400002360343933, 192.0, 0.0, 0.0, 0.0, 0.0, 0.0, 0.0, 0.0, 0.0, 0.0, 1.617003957916806E9, 2021-03-29 10:45:57.916
254.0, -18222.818359375, -102.99683380126953, -187500.015625, -57406.140625, -7860.884765625, -26334.33203125, 8002.46044921875, -536.4418334960938, 187500.0, 187500.0, 187500.0, 184822.640625, -183279.375, 186420.625, -183327.65625, 134696.453125, -0.4620000123977661, 0.7640000581741333, 0.39400002360343933, 192.0, 0.0, 0.0, 0.0, 0.0, 0.0, 0.0, 0.0, 0.0, 0.0, 1.6170039579168108E9, 2021-03-29 10:45:57.916
0.0, -18675.642578125, -98.48178100585938, -187500.015625, -57403.90625, -7862.58349609375, -26319.982421875, 8034.64697265625, -519.2533569335938, 187500.0, 187500.0, 187500.0, 184850.0, -183128.53125, 186472.265625, -183226.15625, 134718.453125, -0.46000000834465027, 0.7620000243186951, 0.38200002908706665, 192.0, 120.5, 80.0, 11.5, 104.0, 5.5, 120.0, 0.0, 0.0, 0.0, 1.6170039579168153E9, 2021-03-29 10:45:57.916
2.0, -18178.359375, -92.71503448486328, -187500.015625, -57409.8046875, -7870.18310546875, -26329.728515625, 8040.1904296875, -532.5973510742188, 187500.0, 187500.0, 187500.0, 184931.15625, -183514.59375, 186539.625, -183430.5, 134802.96875, -0.46000000834465027, 0.7620000243186951, 0.38200002908706665, 192.0, 0.0, 0.0, 0.0, 0.0, 0.0, 0.0, 0.0, 0.0, 0.0, 1.6170039579168189E9, 2021-03-29 10:45:57.916
4.0, -18597.880859375, -141.08421325683594, -187500.015625, -57444.76171875, -7878.6318359375, -26361.869140625, 8006.72998046875, -561.967529296875, 187500.0, 187500.0, 187500.0, 184902.828125, -183506.1875, 186487.8125, -183396.859375, 134751.375, -0.46000000834465027, 0.7620000243186951, 0.38200002908706665, 192.0, 0.0, 0.0, 0.0, 0.0, 0.0, 0.0, 0.0, 0.0, 0.0, 1.6170039579168248E9, 2021-03-29 10:45:57.916
6.0, -18443.8984375, -96.17955017089844, -187500.015625, -57398.16015625, -7878.6318359375, -26330.509765625, 8028.25439453125, -535.9724731445312, 187500.0, 187500.0, 187500.0, 184910.859375, -183522.453125, 186475.1875, -183286.28125, 134771.296875, -0.46000000834465027, 0.7620000243186951, 0.38200002908706665, 192.0, 0.0, 0.0, 0.0, 0.0, 0.0, 0.0, 0.0, 0.0, 0.0, 1.6170039579168284E9, 2021-03-29 10:45:57.916
8.0, -18257.126953125, -134.71395874023438, -187500.015625, -57420.578125, -7870.56298828125, -26349.576171875, 8022.443359375, -550.5905151367188, 187500.0, 187500.0, 187500.0, 184890.046875, -183483.296875, 186485.53125, -183357.65625, 134759.015625, -0.46000000834465027, 0.7620000243186951, 0.38200002908706665, 192.0, 0.0, 0.0, 0.0, 0.0, 0.0, 0.0, 0.0, 0.0, 0.0, 1.6170039579168324E9, 2021-03-29 10:45:57.916
10.0, -18698.3515625, -123.00164794921875, -187500.015625, -57390.3359375, -7871.34521484375, -26324.474609375, 8032.4345703125, -527.6799926757812, 187500.0, 187500.0, 187500.0, 184879.09375, -183407.484375, 186480.15625, -183254.765625, 134761.296875, -0.46400001645088196, 0.7580000162124634, 0.37800002098083496, 192.0, 120.5, 64.0, 11.5, 88.0, 5.5, 104.0, 0.0, 0.0, 0.0, 1.617003957916836E9, 2021-03-29 10:45:57.916
12.0, -18151.560546875, -119.24655151367188, -187500.015625, -57395.8359375, -7881.11328125, -26327.3359375, 8028.09814453125, -539.5263671875, 187500.0, 187500.0, 187500.0, 184872.96875, -183410.40625, 186508.78125, -183439.203125, 134785.21875, -0.46400001645088196, 0.7580000162124634, 0.37800002098083496, 192.0, 0.0, 0.0, 0.0, 0.0, 0.0, 0.0, 0.0, 0.0, 0.0, 1.61700395791684E9, 2021-03-29 10:45:57.916
14.0, -18565.58203125, -150.56134033203125, -187500.015625, -57409.22265625, -7876.5087890625, -26323.9609375, 8018.576171875, -539.3922729492188, 187500.0, 187500.0, 187500.0, 184839.90625, -183328.515625, 186459.78125, -183395.921875, 134743.9375, -0.46400001645088196, 0.7580000162124634, 0.37800002098083496, 192.0, 0.0, 0.0, 0.0, 0.0, 0.0, 0.0, 0.0, 0.0, 0.0, 1.617003957916844E9, 2021-03-29 10:45:57.916
16.0, -18402.75, -130.28831481933594, -187500.015625, -57402.31640625, -7884.53271484375, -26315.310546875, 8008.16015625, -535.6148071289062, 187500.0, 187500.0, 187500.0, 184854.265625, -183333.71875, 186437.1875, -183277.65625, 134751.046875, -0.46400001645088196, 0.7580000162124634, 0.37800002098083496, 192.0, 0.0, 0.0, 0.0, 0.0, 0.0, 0.0, 0.0, 0.0, 0.0, 1.6170039579168477E9, 2021-03-29 10:45:57.916
18.0, -18226.88671875, -144.8616485595703, -187500.015625, -57410.609375, -7868.640625, -26324.408203125, 8025.1923828125, -545.5166625976562, 187500.0, 187500.0, 187500.0, 184846.125, -183279.515625, 186447.5, -183340.171875, 134739.625, -0.46400001645088196, 0.7580000162124634, 0.37800002098083496, 192.0, 0.0, 0.0, 0.0, 0.0, 0.0, 0.0, 0.0, 0.0, 0.0, 1.6170039579168563E9, 2021-03-29 10:45:57.916
20.0, -18697.970703125, -149.62257385253906, -187500.015625, -57418.34375, -7864.52783203125, -26317.94921875, 8035.72021484375, -540.979248046875, 187500.0, 187500.0, 187500.0, 184883.59375, -183117.21875, 186453.421875, -183231.234375, 134754.171875, -0.46000000834465027, 0.7580000162124634, 0.38200002908706665, 192.0, 120.5, 80.0, 11.5, 88.0, 5.5, 120.0, 0.0, 0.0, 0.0, 1.61700395791686E9, 2021-03-29 10:45:57.916
22.0, -18207.037109375, -120.34178924560547, -187500.015625, -57405.671875, -7866.427734375, -26324.095703125, 8018.8447265625, -545.0025634765625, 187500.0, 187500.0, 187500.0, 184982.21875, -183502.46875, 186539.875, -183407.671875, 134834.390625, -0.46000000834465027, 0.7580000162124634, 0.38200002908706665, 192.0, 0.0, 0.0, 0.0, 0.0, 0.0, 0.0, 0.0, 0.0, 0.0, 1.6170039579168642E9, 2021-03-29 10:45:57.916
24.0, -18644.23828125, -156.6633758544922, -187500.015625, -57432.53515625, -7865.62353515625, -26345.59765625, 8018.08447265625, -564.515625, 187500.0, 187500.0, 187500.0, 184983.328125, -183502.40625, 186529.328125, -183357.34375, 134815.640625, -0.46000000834465027, 0.7580000162124634, 0.38200002908706665, 192.0, 0.0, 0.0, 0.0, 0.0, 0.0, 0.0, 0.0, 0.0, 0.0, 1.617003957916868E9, 2021-03-29 10:45:57.916
26.0, -18518.8671875, -129.10366821289062, -187500.015625, -57420.265625, -7869.892578125, -26336.27734375, 8015.89404296875, -550.0540771484375, 187500.0, 187500.0, 187500.0, 184993.78125, -183505.375, 186554.421875, -183221.265625, 134834.28125, -0.46000000834465027, 0.7580000162124634, 0.38200002908706665, 192.0, 0.0, 0.0, 0.0, 0.0, 0.0, 0.0, 0.0, 0.0, 0.0, 1.617003957916872E9, 2021-03-29 10:45:57.916
28.0, -18336.6328125, -146.40391540527344, -187500.015625, -57431.0859375, -7857.7109375, -26348.16796875, 8004.47216796875, -558.3465576171875, 187500.0, 187500.0, 187500.0, 184999.0625, -183454.578125, 186582.703125, -183274.984375, 134844.25, -0.46000000834465027, 0.7580000162124634, 0.38200002908706665, 192.0, 0.0, 0.0, 0.0, 0.0, 0.0, 0.0, 0.0, 0.0, 0.0, 1.617003957916876E9, 2021-03-29 10:45:57.916
30.0, -18759.236328125, -147.58856201171875, -187500.015625, -57431.6640625, -7879.21337890625, -26348.705078125, 7996.29150390625, -560.02294921875, 187500.0, 187500.0, 187500.0, 185003.640625, -183369.375, 186520.859375, -183199.703125, 134843.21875, -0.46800002455711365, 0.7580000162124634, 0.38600000739097595, 192.0, 120.5, 48.0, 11.5, 88.0, 6.0, 8.0, 0.0, 0.0, 0.0, 1.6170039579168797E9, 2021-03-29 10:45:57.916
32.0, -18249.685546875, -143.8111114501953, -187500.015625, -57437.58984375, -7895.0380859375, -26359.076171875, 7980.86865234375, -574.3727416992188, 187500.0, 187500.0, 187500.0, 184996.75, -183359.421875, 186500.015625, -183415.34375, 134833.3125, -0.46800002455711365, 0.7580000162124634, 0.38600000739097595, 192.0, 0.0, 0.0, 0.0, 0.0, 0.0, 0.0, 0.0, 0.0, 0.0, 1.6170039579168837E9, 2021-03-29 10:45:57.916
34.0, -18682.279296875, -138.8713836669922, -187500.015625, -57439.69140625, -7887.6171875, -26365.982421875, 7983.6630859375, -577.5690307617188, 187500.0, 187500.0, 187500.0, 185020.09375, -183272.875, 186511.515625, -183373.484375, 134848.0, -0.46800002455711365, 0.7580000162124634, 0.38600000739097595, 192.0, 0.0, 0.0, 0.0, 0.0, 0.0, 0.0, 0.0, 0.0, 0.0, 1.6170039579168875E9, 2021-03-29 10:45:57.916
36.0, -18556.953125, -126.86849975585938, -187500.015625, -57442.28125, -7895.708984375, -26357.533203125, 7973.73876953125, -569.9024047851562, 187500.0, 187500.0, 187500.0, 185024.984375, -183279.671875, 186516.9375, -183248.609375, 134844.03125, -0.46800002455711365, 0.7580000162124634, 0.38600000739097595, 192.0, 0.0, 0.0, 0.0, 0.0, 0.0, 0.0, 0.0, 0.0, 0.0, 1.617003957916891E9, 2021-03-29 10:45:57.916
38.0, -18363.4765625, -121.34761810302734, -187500.015625, -57437.69921875, -7876.6650390625, -26356.908203125, 7960.841796875, -575.5797729492188, 187500.0, 187500.0, 187500.0, 185023.328125, -183229.171875, 186520.71875, -183309.15625, 134847.28125, -0.46800002455711365, 0.7580000162124634, 0.38600000739097595, 192.0, 0.0, 0.0, 0.0, 0.0, 0.0, 0.0, 0.0, 0.0, 0.0, 1.6170039579168952E9, 2021-03-29 10:45:57.916
40.0, -18838.36328125, -97.14067840576172, -187500.015625, -57420.15234375, -7872.462890625, -26341.8203125, 7969.49169921875, -560.7605590820312, 187500.0, 187500.0, 187500.0, 185084.46875, -183081.125, 186560.609375, -183204.25, 134898.359375, -0.4620000123977661, 0.7580000162124634, 0.38600000739097595, 192.0, 120.5, 72.0, 11.5, 88.0, 6.0, 8.0, 0.0, 0.0, 0.0, 1.6170039579168987E9, 2021-03-29 10:45:57.916
42.0, -18300.400390625, -106.72957611083984, -187500.015625, -57430.1015625, -7886.36572265625, -26347.900390625, 7953.2646484375, -567.22021484375, 187500.0, 187500.0, 187500.0, 185141.390625, -183490.875, 186599.0625, -183389.828125, 134952.859375, -0.4620000123977661, 0.7580000162124634, 0.38600000739097595, 192.0, 0.0, 0.0, 0.0, 0.0, 0.0, 0.0, 0.0, 0.0, 0.0, 1.6170039579169028E9, 2021-03-29 10:45:57.916
44.0, -18724.16796875, -135.65272521972656, -187500.015625, -57453.125, -7882.58837890625, -26366.072265625, 7932.34326171875, -587.60498046875, 187500.0, 187500.0, 187500.0, 185093.828125, -183489.625, 186568.265625, -183349.75, 134909.578125, -0.4620000123977661, 0.7580000162124634, 0.38600000739097595, 192.0, 0.0, 0.0, 0.0, 0.0, 0.0, 0.0, 0.0, 0.0, 0.0, 1.6170039579169066E9, 2021-03-29 10:45:57.916
46.0, -18625.037109375, -80.0639419555664, -187500.015625, -57428.04296875, -7884.6220703125, -26356.70703125, 7944.8828125, -572.6516723632812, 187500.0, 187500.0, 187500.0, 185128.546875, -183507.140625, 186602.015625, -183224.796875, 134936.671875, -0.4620000123977661, 0.7580000162124634, 0.38600000739097595, 192.0, 0.0, 0.0, 0.0, 0.0, 0.0, 0.0, 0.0, 0.0, 0.0, 1.6170039579169104E9, 2021-03-29 10:45:57.916
48.0, -18419.087890625, -123.02399444580078, -187500.015625, -57452.453125, -7881.18017578125, -26366.7421875, 7927.0234375, -586.5321044921875, 187500.0, 187500.0, 187500.0, 185135.84375, -183466.078125, 186589.0, -183286.0, 134946.859375, -0.4620000123977661, 0.7580000162124634, 0.38600000739097595, 192.0, 0.0, 0.0, 0.0, 0.0, 0.0, 0.0, 0.0, 0.0, 0.0, 1.6170039579169145E9, 2021-03-29 10:45:57.916
50.0, -18847.861328125, -114.23976135253906, -187500.015625, -57458.15234375, -7895.306640625, -26362.00390625, 7924.72119140625, -585.1239624023438, 187500.0, 187500.0, 187500.0, 185124.203125, -183383.703125, 186567.4375, -183196.1875, 134929.71875, -0.4620000123977661, 0.7600000500679016, 0.3960000276565552, 192.0, 120.5, 72.0, 11.5, 96.0, 6.0, 48.0, 0.0, 0.0, 0.0, 1.6170039579169183E9, 2021-03-29 10:45:57.916
52.0, -18340.298828125, -97.02891540527344, -187500.015625, -57441.96875, -7879.0791015625, -26330.2421875, 7953.197265625, -559.5535278320312, 187500.0, 187500.0, 187500.0, 185130.28125, -183385.5, 186588.71875, -183407.140625, 134946.125, -0.4620000123977661, 0.7600000500679016, 0.3960000276565552, 192.0, 0.0, 0.0, 0.0, 0.0, 0.0, 0.0, 0.0, 0.0, 0.0, 1.6170039579169235E9, 2021-03-29 10:45:57.916
54.0, -18779.82421875, -120.29708099365234, -187500.015625, -57460.58984375, -7868.37255859375, -26332.74609375, 7944.94970703125, -563.263916015625, 187500.0, 187500.0, 187500.0, 185165.375, -183304.0625, 186640.21875, -183367.359375, 134993.828125, -0.4620000123977661, 0.7600000500679016, 0.3960000276565552, 192.0, 0.0, 0.0, 0.0, 0.0, 0.0, 0.0, 0.0, 0.0, 0.0, 1.6170039579169285E9, 2021-03-29 10:45:57.916
56.0, -18645.69140625, -99.57701873779297, -187500.015625, -57465.83984375, -7896.80419921875, -26344.859375, 7917.72509765625, -573.2327880859375, 187500.0, 187500.0, 187500.0, 185171.359375, -183301.890625, 186667.765625, -183232.84375, 134999.484375, -0.4620000123977661, 0.7600000500679016, 0.3960000276565552, 192.0, 0.0, 0.0, 0.0, 0.0, 0.0, 0.0, 0.0, 0.0, 0.0, 1.6170039579169323E9, 2021-03-29 10:45:57.916
58.0, -18425.8828125, -117.68193054199219, -187500.015625, -57474.73828125, -7880.15185546875, -26355.1640625, 7932.0302734375, -581.0783081054688, 187500.0, 187500.0, 187500.0, 185155.078125, -183244.28125, 186644.4375, -183292.59375, 134975.9375, -0.4620000123977661, 0.7600000500679016, 0.3960000276565552, 192.0, 0.0, 0.0, 0.0, 0.0, 0.0, 0.0, 0.0, 0.0, 0.0, 1.6170039579169364E9, 2021-03-29 10:45:57.916
60.0, -18880.62890625, -98.79470825195312, -187500.015625, -57466.3125, -7890.79150390625, -26361.78125, 7918.97705078125, -586.4874267578125, 187500.0, 187500.0, 187500.0, 185199.34375, -183086.5, 186654.140625, -183195.8125, 135016.875, -0.4580000340938568, 0.7620000243186951, 0.3920000195503235, 192.0, 120.5, 88.0, 11.5, 104.0, 6.0, 32.0, 0.0, 0.0, 0.0, 1.6170039579169407E9, 2021-03-29 10:45:57.916
62.0, -18372.73046875, -83.84139251708984, -187500.015625, -57453.59375, -7891.59619140625, -26348.279296875, 7926.33056640625, -573.9927978515625, 187500.0, 187500.0, 187500.0, 185229.296875, -183484.546875, 186705.921875, -183403.359375, 135045.28125, -0.4580000340938568, 0.7620000243186951, 0.3920000195503235, 192.0, 0.0, 0.0, 0.0, 0.0, 0.0, 0.0, 0.0, 0.0, 0.0, 1.617003957916946E9, 2021-03-29 10:45:57.916
64.0, -18801.28125, -123.00164794921875, -187500.015625, -57465.86328125, -7885.56103515625, -26364.529296875, 7905.275390625, -594.9140014648438, 187500.0, 187500.0, 187500.0, 185258.0, -183465.734375, 186736.59375, -183373.953125, 135075.71875, -0.4580000340938568, 0.7620000243186951, 0.3920000195503235, 192.0, 0.0, 0.0, 0.0, 0.0, 0.0, 0.0, 0.0, 0.0, 0.0, 1.61700395791695E9, 2021-03-29 10:45:57.916
66.0, -18698.373046875, -86.30007934570312, -187500.015625, -57451.37890625, -7898.7041015625, -26352.59375, 7922.2177734375, -581.6817626953125, 187500.0, 187500.0, 187500.0, 185268.234375, -183464.984375, 186743.515625, -183245.828125, 135087.140625, -0.4580000340938568, 0.7620000243186951, 0.3920000195503235, 192.0, 0.0, 0.0, 0.0, 0.0, 0.0, 0.0, 0.0, 0.0, 0.0, 1.6170039579169545E9, 2021-03-29 10:45:57.916
68.0, -18470.630859375, -99.95700073242188, -187500.015625, -57453.03515625, -7885.13623046875, -26355.634765625, 7918.39599609375, -597.1939086914062, 187500.0, 187500.0, 187500.0, 185266.515625, -183421.265625, 186753.875, -183318.71875, 135088.03125, -0.4580000340938568, 0.7620000243186951, 0.3920000195503235, 192.0, 0.0, 0.0, 0.0, 0.0, 0.0, 0.0, 0.0, 0.0, 0.0, 1.617003957916958E9, 2021-03-29 10:45:57.916
70.0, -18958.90625, -104.33793640136719, -187500.015625, -57456.3203125, -7893.00439453125, -26355.74609375, 7920.69775390625, -590.6895141601562, 187500.0, 187500.0, 187500.0, 185264.953125, -183338.609375, 186742.609375, -183221.828125, 135088.015625, -0.4620000123977661, 0.7600000500679016, 0.3880000114440918, 192.0, 120.5, 72.0, 11.5, 96.0, 6.0, 16.0, 0.0, 0.0, 0.0, 1.617003957916962E9, 2021-03-29 10:45:57.916
72.0, -18441.6640625, -79.16987609863281, -187500.015625, -57439.48828125, -7889.271484375, -26349.912109375, 7928.34228515625, -584.654541015625, 187500.0, 187500.0, 187500.0, 185304.828125, -183344.78125, 186779.640625, -183418.96875, 135143.40625, -0.4620000123977661, 0.7600000500679016, 0.3880000114440918, 192.0, 0.0, 0.0, 0.0, 0.0, 0.0, 0.0, 0.0, 0.0, 0.0, 1.617003957916966E9, 2021-03-29 10:45:57.916
74.0, -18776.3359375, -132.6575927734375, -187500.015625, -57489.890625, -7907.0185546875, -26397.38671875, 7890.6572265625, -628.3074951171875, 187500.0, 187500.0, 187500.0, 185257.84375, -183267.59375, 186715.609375, -183395.125, 135094.09375, -0.4620000123977661, 0.7600000500679016, 0.3880000114440918, 192.0, 0.0, 0.0, 0.0, 0.0, 0.0, 0.0, 0.0, 0.0, 0.0, 1.6170039579169698E9, 2021-03-29 10:45:57.916
76.0, -18692.853515625, -95.12902069091797, -187500.015625, -57464.8359375, -7906.34814453125, -26366.294921875, 7909.34326171875, -600.8148803710938, 187500.0, 187500.0, 187500.0, 185234.015625, -183271.203125, 186707.84375, -183264.40625, 135050.265625, -0.4620000123977661, 0.7600000500679016, 0.3880000114440918, 192.0, 0.0, 0.0, 0.0, 0.0, 0.0, 0.0, 0.0, 0.0, 0.0, 1.6170039579169736E9, 2021-03-29 10:45:57.916
78.0, -18454.091796875, -101.09693908691406, -187500.015625, -57475.2734375, -7893.94287109375, -26379.6171875, 7913.97021484375, -609.9120483398438, 187500.0, 187500.0, 187500.0, 185242.78125, -183225.671875, 186717.65625, -183329.25, 135070.921875, -0.4620000123977661, 0.7600000500679016, 0.3880000114440918, 192.0, 0.0, 0.0, 0.0, 0.0, 0.0, 0.0, 0.0, 0.0, 0.0, 1.617003957916978E9, 2021-03-29 10:45:57.916
80.0, -18926.40625, -104.15912628173828, -187500.015625, -57480.4375, -7902.57080078125, -26378.521484375, 7908.4716796875, -609.5320434570312, 187500.0, 187500.0, 187500.0, 185254.8125, -183072.890625, 186726.6875, -183205.78125, 135090.296875, -0.46400001645088196, 0.7540000081062317, 0.3800000250339508, 192.0, 120.5, 64.0, 11.5, 72.0, 5.5, 112.0, 0.0, 0.0, 0.0, 1.617003957916982E9, 2021-03-29 10:45:57.916
82.0, -18424.7890625, -87.1270980834961, -187500.015625, -57465.59375, -7893.8984375, -26354.94140625, 7923.0673828125, -589.2142944335938, 187500.0, 187500.0, 187500.0, 185311.875, -183481.734375, 186768.390625, -183388.0625, 135147.71875, -0.46400001645088196, 0.7540000081062317, 0.3800000250339508, 192.0, 0.0, 0.0, 0.0, 0.0, 0.0, 0.0, 0.0, 0.0, 0.0, 1.6170039579169858E9, 2021-03-29 10:45:57.916
84.0, -18825.0625, -123.1581039428711, -187500.015625, -57493.04296875, -7888.35498046875, -26376.130859375, 7906.54931640625, -616.9081420898438, 187500.0, 187500.0, 187500.0, 185331.921875, -183478.640625, 186796.46875, -183358.265625, 135170.375, -0.46400001645088196, 0.7540000081062317, 0.3800000250339508, 192.0, 0.0, 0.0, 0.0, 0.0, 0.0, 0.0, 0.0, 0.0, 0.0, 1.6170039579169896E9, 2021-03-29 10:45:57.916
86.0, -18756.779296875, -113.41275024414062, -187500.015625, -57488.5078125, -7901.408203125, -26357.130859375, 7920.51904296875, -589.5942993164062, 187500.0, 187500.0, 187500.0, 185345.640625, -183488.453125, 186823.5625, -183221.921875, 135188.9375, -0.46400001645088196, 0.7540000081062317, 0.3800000250339508, 192.0, 0.0, 0.0, 0.0, 0.0, 0.0, 0.0, 0.0, 0.0, 0.0, 1.6170039579169943E9, 2021-03-29 10:45:57.916
88.0, -18497.9453125, -113.92683410644531, -187500.015625, -57493.33203125, -7878.2294921875, -26365.4453125, 7929.8173828125, -594.4669799804688, 187500.0, 187500.0, 187500.0, 185346.984375, -183452.984375, 186854.25, -183284.3125, 135193.609375, -0.46400001645088196, 0.7540000081062317, 0.3800000250339508, 192.0, 0.0, 0.0, 0.0, 0.0, 0.0, 0.0, 0.0, 0.0, 0.0, 1.6170039579169984E9, 2021-03-29 10:45:57.916
90.0, -18956.849609375, -106.23783874511719, -187500.015625, -57474.55859375, -7891.57373046875, -26361.22265625, 7925.2353515625, -598.7138061523438, 187500.0, 187500.0, 187500.0, 185351.5625, -183376.28125, 186804.859375, -183182.03125, 135186.609375, -0.46800002455711365, 0.7560000419616699, 0.37800002098083496, 192.0, 120.5, 48.0, 11.5, 80.0, 5.5, 104.0, 0.0, 0.0, 0.0, 1.6170039579170024E9, 2021-03-29 10:45:57.917
92.0, -18451.96875, -105.32141876220703, -187500.015625, -57477.7109375, -7902.39208984375, -26358.94140625, 7904.4482421875, -606.9392700195312, 187500.0, 187500.0, 187500.0, 185385.34375, -183386.53125, 186879.109375, -183389.109375, 135231.734375, -0.46800002455711365, 0.7560000419616699, 0.37800002098083496, 192.0, 0.0, 0.0, 0.0, 0.0, 0.0, 0.0, 0.0, 0.0, 0.0, 1.6170039579170065E9, 2021-03-29 10:45:57.917
94.0, -18844.822265625, -122.55461120605469, -187500.015625, -57479.609375, -7886.0751953125, -26364.619140625, 7908.56103515625, -611.6777954101562, 187500.0, 187500.0, 187500.0, 185353.78125, -183312.34375, 186821.328125, -183364.765625, 135200.984375, -0.46800002455711365, 0.7560000419616699, 0.37800002098083496, 192.0, 0.0, 0.0, 0.0, 0.0, 0.0, 0.0, 0.0, 0.0, 0.0, 1.6170039579170103E9, 2021-03-29 10:45:57.917
96.0, -18768.55859375, -101.5439682006836, -187500.015625, -57473.23828125, -7910.30419921875, -26367.45703125, 7907.6220703125, -616.3269653320312, 187500.0, 187500.0, 187500.0, 185383.546875, -183312.53125, 186860.890625, -183224.46875, 135227.09375, -0.46800002455711365, 0.7560000419616699, 0.37800002098083496, 192.0, 0.0, 0.0, 0.0, 0.0, 0.0, 0.0, 0.0, 0.0, 0.0, 1.6170039579170141E9, 2021-03-29 10:45:57.917
98.0, -18511.625, -116.2961196899414, -187500.015625, -57478.671875, -7888.2431640625, -26363.994140625, 7914.0146484375, -612.549560546875, 187500.0, 187500.0, 187500.0, 185364.15625, -183270.59375, 186872.453125, -183286.625, 135224.515625, -0.46800002455711365, 0.7560000419616699, 0.37800002098083496, 192.0, 0.0, 0.0, 0.0, 0.0, 0.0, 0.0, 0.0, 0.0, 0.0, 1.6170039579170182E9, 2021-03-29 10:45:57.917
100.0, -18989.70703125, -110.8199462890625, -187500.015625, -57472.81640625, -7893.451171875, -26361.736328125, 7931.56103515625, -606.2910766601562, 187500.0, 187500.0, 187500.0, 185399.0625, -183098.9375, 186848.96875, -183179.640625, 135248.125, -0.4700000286102295, 0.7600000500679016, 0.38200002908706665, 192.0, 120.5, 40.0, 11.5, 96.0, 5.5, 120.0, 0.0, 0.0, 0.0, 1.617003957917022E9, 2021-03-29 10:45:57.917
102.0, -18485.00390625, -98.54883575439453, -187500.015625, -57465.328125, -7896.53564453125, -26352.90625, 7936.32177734375, -598.3338012695312, 187500.0, 187500.0, 187500.0, 185448.4375, -183469.453125, 186965.109375, -183380.484375, 135318.328125, -0.4700000286102295, 0.7600000500679016, 0.38200002908706665, 192.0, 0.0, 0.0, 0.0, 0.0, 0.0, 0.0, 0.0, 0.0, 0.0, 1.617003957917026E9, 2021-03-29 10:45:57.917
104.0, -18845.4921875, -98.90646362304688, -187500.015625, -57478.46875, -7881.068359375, -26365.06640625, 7928.56591796875, -614.337646484375, 187500.0, 187500.0, 187500.0, 185445.90625, -183474.671875, 186900.3125, -183367.203125, 135281.890625, -0.4700000286102295, 0.7600000500679016, 0.38200002908706665, 192.0, 0.0, 0.0, 0.0, 0.0, 0.0, 0.0, 0.0, 0.0, 0.0, 1.61700395839634E9, 2021-03-29 10:45:58.396
106.0, -18766.2109375, -98.7052993774414, -187500.015625, -57486.0703125, -7895.77587890625, -26361.78125, 7923.53662109375, -613.890625, 187500.0, 187500.0, 187500.0, 185477.40625, -183479.703125, 186938.9375, -183231.796875, 135319.71875, -0.4700000286102295, 0.7600000500679016, 0.38200002908706665, 192.0, 0.0, 0.0, 0.0, 0.0, 0.0, 0.0, 0.0, 0.0, 0.0, 1.6170039583963532E9, 2021-03-29 10:45:58.396
108.0, -18492.40234375, -112.80924987792969, -187500.015625, -57495.66015625, -7892.490234375, -26362.451171875, 7920.38525390625, -610.3814086914062, 187500.0, 187500.0, 187500.0, 185428.234375, -183445.5, 186941.84375, -183296.65625, 135289.921875, -0.4700000286102295, 0.7600000500679016, 0.38200002908706665, 192.0, 0.0, 0.0, 0.0, 0.0, 0.0, 0.0, 0.0, 0.0, 0.0, 1.6170039583963585E9, 2021-03-29 10:45:58.396
110.0, -18962.4140625, -112.54103088378906, -187500.015625, -57492.44140625, -7891.9091796875, -26353.80078125, 7928.029296875, -607.498046875, 187500.0, 187500.0, 187500.0, 185460.75, -183362.28125, 186922.53125, -183186.265625, 135313.984375, -0.47200003266334534, 0.7580000162124634, 0.38600000739097595, 192.0, 120.5, 32.0, 11.5, 88.0, 6.0, 8.0, 0.0, 0.0, 0.0, 1.6170039583963635E9, 2021-03-29 10:45:58.396
112.0, -18452.615234375, -92.64797973632812, -187500.015625, -57482.71484375, -7893.697265625, -26356.349609375, 7927.56005859375, -614.6953125, 187500.0, 187500.0, 187500.0, 185473.921875, -183373.8125, 186970.5625, -183372.859375, 135336.078125, -0.47200003266334534, 0.7580000162124634, 0.38600000739097595, 192.0, 0.0, 0.0, 0.0, 0.0, 0.0, 0.0, 0.0, 0.0, 0.0, 1.6170039583963685E9, 2021-03-29 10:45:58.396
114.0, -18787.958984375, -110.73053741455078, -187500.015625, -57489.37890625, -7888.91357421875, -26368.10546875, 7915.55712890625, -626.541748046875, 187500.0, 187500.0, 187500.0, 185455.390625, -183300.65625, 186960.5625, -183351.578125, 135326.015625, -0.47200003266334534, 0.7580000162124634, 0.38600000739097595, 192.0, 0.0, 0.0, 0.0, 0.0, 0.0, 0.0, 0.0, 0.0, 0.0, 1.617003958396374E9, 2021-03-29 10:45:58.396
116.0, -18764.9140625, -123.04634857177734, -187500.015625, -57510.3203125, -7906.482421875, -26376.0859375, 7908.53857421875, -630.0509643554688, 187500.0, 187500.0, 187500.0, 185463.859375, -183298.0625, 186970.75, -183208.84375, 135340.046875, -0.47200003266334534, 0.7580000162124634, 0.38600000739097595, 192.0, 0.0, 0.0, 0.0, 0.0, 0.0, 0.0, 0.0, 0.0, 0.0, 1.6170039583963797E9, 2021-03-29 10:45:58.396
118.0, -18466.318359375, -112.00458526611328, -187500.015625, -57507.19140625, -7900.6259765625, -26378.611328125, 7893.4736328125, -639.326904296875, 187500.0, 187500.0, 187500.0, 185469.84375, -183260.3125, 186965.09375, -183272.453125, 135346.46875, -0.47200003266334534, 0.7580000162124634, 0.38600000739097595, 192.0, 0.0, 0.0, 0.0, 0.0, 0.0, 0.0, 0.0, 0.0, 0.0, 1.6170039583963845E9, 2021-03-29 10:45:58.396
120.0, -18982.0625, -89.42932891845703, -187500.015625, -57489.2421875, -7898.033203125, -26359.009765625, 7916.6298828125, -616.39404296875, 187500.0, 187500.0, 187500.0, 185544.890625, -183093.859375, 187034.140625, -183171.09375, 135401.796875, -0.4700000286102295, 0.7600000500679016, 0.3920000195503235, 192.0, 120.5, 40.0, 11.5, 96.0, 6.0, 32.0, 0.0, 0.0, 0.0, 1.6170039583964016E9, 2021-03-29 10:45:58.396
122.0, -18428.744140625, -79.34868621826172, -187500.015625, -57486.16015625, -7885.091796875, -26359.34375, 7922.2177734375, -621.7584228515625, 187500.0, 187500.0, 187500.0, 185550.15625, -183445.953125, 187076.8125, -183367.921875, 135431.21875, -0.4700000286102295, 0.7600000500679016, 0.3920000195503235, 192.0, 0.0, 0.0, 0.0, 0.0, 0.0, 0.0, 0.0, 0.0, 0.0, 1.6170039583964055E9, 2021-03-29 10:45:58.396
124.0, -18795.291015625, -101.83454132080078, -187500.015625, -57499.12109375, -7888.869140625, -26364.9765625, 7906.99658203125, -628.1957397460938, 187500.0, 187500.0, 187500.0, 185532.1875, -183421.5625, 187041.109375, -183348.296875, 135412.71875, -0.4700000286102295, 0.7600000500679016, 0.3920000195503235, 192.0, 0.0, 0.0, 0.0, 0.0, 0.0, 0.0, 0.0, 0.0, 0.0, 1.6170039583964095E9, 2021-03-29 10:45:58.396
126.0, -18729.77734375, -63.255435943603516, -187500.015625, -57469.8203125, -7873.4912109375, -26335.673828125, 7941.619140625, -605.4640502929688, 187500.0, 187500.0, 187500.0, 185593.71875, -183375.5, 187077.71875, -183199.96875, 135464.6875, -0.4700000286102295, 0.7600000500679016, 0.3920000195503235, 192.0, 0.0, 0.0, 0.0, 0.0, 0.0, 0.0, 0.0, 0.0, 0.0, 1.6170039583964133E9, 2021-03-29 10:45:58.396
128.0, -18437.9765625, -91.61979675292969, -187500.015625, -57497.0234375, -7878.6318359375, -26365.55859375, 7903.419921875, -633.2025756835938, 187500.0, 187500.0, 187500.0, 185562.921875, -183302.265625, 187073.390625, -183260.203125, 135447.703125, -0.4700000286102295, 0.7600000500679016, 0.3920000195503235, 192.0, 0.0, 0.0, 0.0, 0.0, 0.0, 0.0, 0.0, 0.0, 0.0, 1.6170039583964186E9, 2021-03-29 10:45:58.396
130.0, -18930.96484375, -142.8946990966797, -187500.015625, -57550.15234375, -7921.94970703125, -26403.51171875, 7885.091796875, -665.1878662109375, 187500.0, 187500.0, 187500.0, 185544.890625, -183195.625, 187078.375, -183163.734375, 135438.625, -0.4540000259876251, 0.7700000405311584, 0.398000031709671, 192.0, 120.5, 104.0, 12.0, 8.0, 6.0, 56.0, 0.0, 0.0, 0.0, 1.6170039583964224E9, 2021-03-29 10:45:58.396
132.0, -18386.5, -66.317626953125, -187500.015625, -57479.83203125, -7881.60498046875, -26351.431640625, 7919.0439453125, -621.1996459960938, 187500.0, 187500.0, 187500.0, 185607.8125, -183190.015625, 187128.15625, -183376.1875, 135496.265625, -0.4540000259876251, 0.7700000405311584, 0.398000031709671, 192.0, 0.0, 0.0, 0.0, 0.0, 0.0, 0.0, 0.0, 0.0, 0.0, 1.617003958396427E9, 2021-03-29 10:45:58.396
134.0, -18702.017578125, -60.10383987426758, -187500.015625, -57478.828125, -7864.37158203125, -26355.56640625, 7919.87109375, -624.5747680664062, 187500.0, 187500.0, 187500.0, 185620.859375, -183022.0, 187141.9375, -183364.921875, 135512.296875, -0.4540000259876251, 0.7700000405311584, 0.398000031709671, 192.0, 0.0, 0.0, 0.0, 0.0, 0.0, 0.0, 0.0, 0.0, 0.0, 1.6170039583964312E9, 2021-03-29 10:45:58.396
136.0, -18619.494140625, -17.25554656982422, -187500.015625, -57447.0, -7858.4931640625, -26331.001953125, 7936.634765625, -609.4873657226562, 187500.0, 187500.0, 187500.0, 185678.4375, -183178.125, 187165.390625, -183202.21875, 135559.96875, -0.4540000259876251, 0.7700000405311584, 0.398000031709671, 192.0, 0.0, 0.0, 0.0, 0.0, 0.0, 0.0, 0.0, 0.0, 0.0, 1.6170039583964353E9, 2021-03-29 10:45:58.396
138.0, -18293.29296875, -27.58205223083496, -187500.015625, -57450.75390625, -7848.6357421875, -26331.248046875, 7932.25390625, -611.5660400390625, 187500.0, 187500.0, 187500.0, 185680.5, -183543.984375, 187188.90625, -183263.953125, 135572.875, -0.4540000259876251, 0.7700000405311584, 0.398000031709671, 192.0, 0.0, 0.0, 0.0, 0.0, 0.0, 0.0, 0.0, 0.0, 0.0, 1.6170039583964393E9, 2021-03-29 10:45:58.396
140.0, -18793.189453125, -48.79385757446289, -187500.015625, -57474.53515625, -7873.22265625, -26339.96484375, 7916.49609375, -624.9771118164062, 187500.0, 187500.0, 187500.0, 185670.703125, -183477.640625, 187159.390625, -183169.234375, 135563.609375, -0.4580000340938568, 0.7680000066757202, 0.3960000276565552, 192.0, 120.5, 88.0, 12.0, 0.0, 6.0, 48.0, 0.0, 0.0, 0.0, 1.6170039583964431E9, 2021-03-29 10:45:58.396
142.0, -18299.216796875, -57.57809066772461, -187500.015625, -57496.9765625, -7882.54345703125, -26352.2578125, 7899.57568359375, -636.5106201171875, 187500.0, 187500.0, 187500.0, 185708.140625, -183490.96875, 187241.390625, -183389.421875, 135612.875, -0.4580000340938568, 0.7680000066757202, 0.3960000276565552, 192.0, 0.0, 0.0, 0.0, 0.0, 0.0, 0.0, 0.0, 0.0, 0.0, 1.6170039583964474E9, 2021-03-29 10:45:58.396
144.0, -18629.59765625, -98.68294525146484, -187500.015625, -57530.796875, -7891.72998046875, -26379.662109375, 7879.8388671875, -670.2841186523438, 187500.0, 187500.0, 187500.0, 185644.953125, -183418.140625, 187151.46875, -183389.6875, 135562.859375, -0.4580000340938568, 0.7680000066757202, 0.3960000276565552, 192.0, 0.0, 0.0, 0.0, 0.0, 0.0, 0.0, 0.0, 0.0, 0.0, 1.6170039583964517E9, 2021-03-29 10:45:58.396
146.0, -18596.5390625, -46.49162673950195, -187500.015625, -57502.09765625, -7880.53173828125, -26347.810546875, 7902.6376953125, -636.48828125, 187500.0, 187500.0, 187500.0, 185646.28125, -183419.609375, 187163.328125, -183252.515625, 135557.765625, -0.4580000340938568, 0.7680000066757202, 0.3960000276565552, 192.0, 0.0, 0.0, 0.0, 0.0, 0.0, 0.0, 0.0, 0.0, 0.0, 1.6170039583964558E9, 2021-03-29 10:45:58.396
148.0, -18288.599609375, -34.84636688232422, -187500.015625, -57477.21875, -7862.78466796875, -26341.015625, 7911.2880859375, -629.78271484375, 187500.0, 187500.0, 187500.0, 185666.90625, -183392.34375, 187192.71875, -183338.015625, 135581.34375, -0.4580000340938568, 0.7680000066757202, 0.3960000276565552, 192.0, 0.0, 0.0, 0.0, 0.0, 0.0, 0.0, 0.0, 0.0, 0.0, 1.61700395839646E9, 2021-03-29 10:45:58.396
150.0, -18787.37890625, -45.44109344482422, -187500.015625, -57487.6796875, -7878.00634765625, -26348.48046875, 7898.79345703125, -638.4105224609375, 187500.0, 187500.0, 187500.0, 185642.875, -183310.875, 187142.796875, -183216.125, 135571.953125, -0.46000000834465027, 0.7580000162124634, 0.3880000114440918, 192.0, 120.5, 80.0, 11.5, 88.0, 6.0, 16.0, 0.0, 0.0, 0.0, 1.6170039583964643E9, 2021-03-29 10:45:58.396
152.0, -18278.09375, -31.515958786010742, -187500.015625, -57482.6484375, -7866.18212890625, -26342.849609375, 7913.97021484375, -637.0247192382812, 187500.0, 187500.0, 187500.0, 185673.5625, -183324.171875, 187189.484375, -183380.25, 135612.90625, -0.46000000834465027, 0.7580000162124634, 0.3880000114440918, 192.0, 0.0, 0.0, 0.0, 0.0, 0.0, 0.0, 0.0, 0.0, 0.0, 1.6170039583964686E9, 2021-03-29 10:45:58.396
154.0, -18584.9609375, -71.88320922851562, -187500.015625, -57509.5625, -7869.4677734375, -26369.71484375, 7893.8759765625, -658.2588500976562, 187500.0, 187500.0, 187500.0, 185641.421875, -183249.984375, 187159.515625, -183375.578125, 135587.84375, -0.46000000834465027, 0.7580000162124634, 0.3880000114440918, 192.0, 0.0, 0.0, 0.0, 0.0, 0.0, 0.0, 0.0, 0.0, 0.0, 1.617003958396474E9, 2021-03-29 10:45:58.396
156.0, -18559.123046875, -64.21656036376953, -187500.015625, -57505.0, -7889.40576171875, -26364.841796875, 7891.19384765625, -658.77294921875, 187500.0, 187500.0, 187500.0, 185602.21875, -183249.09375, 187149.609375, -183228.390625, 135564.78125, -0.46000000834465027, 0.7580000162124634, 0.3880000114440918, 192.0, 0.0, 0.0, 0.0, 0.0, 0.0, 0.0, 0.0, 0.0, 0.0, 1.617003958396478E9, 2021-03-29 10:45:58.396
158.0, -18229.791015625, -64.8424072265625, -187500.015625, -57497.55859375, -7875.52490234375, -26360.103515625, 7891.7080078125, -655.3084106445312, 187500.0, 187500.0, 187500.0, 185592.703125, -183213.640625, 187126.46875, -183297.625, 135544.4375, -0.46000000834465027, 0.7580000162124634, 0.3880000114440918, 192.0, 0.0, 0.0, 0.0, 0.0, 0.0, 0.0, 0.0, 0.0, 0.0, 1.617003958396482E9, 2021-03-29 10:45:58.396
160.0, -18745.625, -66.317626953125, -187500.015625, -57491.48046875, -7867.27734375, -26346.06640625, 7917.79248046875, -646.322998046875, 187500.0, 187500.0, 187500.0, 185598.15625, -183040.984375, 187134.1875, -183179.0625, 135558.859375, -0.4620000123977661, 0.7580000162124634, 0.38600000739097595, 192.0, 120.5, 72.0, 11.5, 88.0, 6.0, 8.0, 0.0, 0.0, 0.0, 1.6170039583964863E9, 2021-03-29 10:45:58.396
162.0, -18275.9921875, -37.84150314331055, -187500.015625, -57475.8984375, -7867.54541015625, -26328.87890625, 7928.09619140625, -633.38134765625, 187500.0, 187500.0, 187500.0, 185671.328125, -183431.234375, 187242.203125, -183366.0, 135636.390625, -0.4620000123977661, 0.7580000162124634, 0.38600000739097595, 192.0, 0.0, 0.0, 0.0, 0.0, 0.0, 0.0, 0.0, 0.0, 0.0, 1.6170039583964903E9, 2021-03-29 10:45:58.396
164.0, -18569.068359375, -73.69369506835938, -187500.015625, -57499.19140625, -7862.8291015625, -26352.4375, 7917.009765625, -659.3317260742188, 187500.0, 187500.0, 187500.0, 185638.515625, -183470.734375, 187159.3125, -183382.796875, 135617.1875, -0.4620000123977661, 0.7580000162124634, 0.38600000739097595, 192.0, 0.0, 0.0, 0.0, 0.0, 0.0, 0.0, 0.0, 0.0, 0.0, 1.6170039583964944E9, 2021-03-29 10:45:58.396
166.0, -18549.9140625, -77.76171875, -187500.015625, -57518.32421875, -7884.19775390625, -26365.625, 7904.26953125, -672.5863037109375, 187500.0, 187500.0, 187500.0, 185610.421875, -183483.609375, 187162.4375, -183249.8125, 135590.109375, -0.4620000123977661, 0.7580000162124634, 0.38600000739097595, 192.0, 0.0, 0.0, 0.0, 0.0, 0.0, 0.0, 0.0, 0.0, 0.0, 1.6170039583964992E9, 2021-03-29 10:45:58.396
168.0, -18185.826171875, -87.6858901977539, -187500.015625, -57524.87109375, -7885.15869140625, -26376.845703125, 7898.39111328125, -681.214111328125, 187500.0, 187500.0, 187500.0, 185508.546875, -183464.78125, 187033.40625, -183329.03125, 135475.78125, -0.4620000123977661, 0.7580000162124634, 0.38600000739097595, 192.0, 0.0, 0.0, 0.0, 0.0, 0.0, 0.0, 0.0, 0.0, 0.0, 1.617003958396503E9, 2021-03-29 10:45:58.396
170.0, -18684.626953125, -74.85598754882812, -187500.015625, -57515.4609375, -7871.74755859375, -26364.328125, 7914.6181640625, -671.669921875, 187500.0, 187500.0, 187500.0, 185513.703125, -183391.046875, 187012.078125, -183217.15625, 135473.734375, -0.4660000205039978, 0.7560000419616699, 0.3880000114440918, 192.0, 120.5, 56.0, 11.5, 80.0, 6.0, 16.0, 0.0, 0.0, 0.0, 1.617003958396507E9, 2021-03-29 10:45:58.396
172.0, -18227.310546875, -42.445960998535156, -187500.015625, -57499.859375, -7875.18994140625, -26349.2421875, 7916.8310546875, -660.225830078125, 187500.0, 187500.0, 187500.0, 185516.40625, -183426.828125, 187043.390625, -183388.140625, 135501.796875, -0.4660000205039978, 0.7560000419616699, 0.3880000114440918, 192.0, 0.0, 0.0, 0.0, 0.0, 0.0, 0.0, 0.0, 0.0, 0.0, 1.6170039583965113E9, 2021-03-29 10:45:58.396
174.0, -18507.376953125, -93.2738265991211, -187500.015625, -57542.44140625, -7882.8564453125, -26382.009765625, 7884.77880859375, -698.5590209960938, 187500.0, 187500.0, 187500.0, 185501.5625, -183392.953125, 187005.03125, -183409.046875, 135485.8125, -0.4660000205039978, 0.7560000419616699, 0.3880000114440918, 192.0, 0.0, 0.0, 0.0, 0.0, 0.0, 0.0, 0.0, 0.0, 0.0, 1.6170039583965156E9, 2021-03-29 10:45:58.396
176.0, -18507.4453125, -67.30110168457031, -187500.015625, -57529.20703125, -7901.31884765625, -26370.140625, 7894.54638671875, -682.0858154296875, 187500.0, 187500.0, 187500.0, 185425.734375, -183422.828125, 186960.984375, -183274.546875, 135408.296875, -0.4660000205039978, 0.7560000419616699, 0.3880000114440918, 192.0, 0.0, 0.0, 0.0, 0.0, 0.0, 0.0, 0.0, 0.0, 0.0, 1.6170039583965197E9, 2021-03-29 10:45:58.396
178.0, -18165.955078125, -70.89973449707031, -187500.015625, -57530.90625, -7887.99755859375, -26367.8828125, 7899.0615234375, -686.1762084960938, 187500.0, 187500.0, 187500.0, 185390.390625, -183423.640625, 186918.84375, -183356.0, 135387.421875, -0.4660000205039978, 0.7560000419616699, 0.3880000114440918, 192.0, 0.0, 0.0, 0.0, 0.0, 0.0, 0.0, 0.0, 0.0, 0.0, 1.6170039583965237E9, 2021-03-29 10:45:58.396
180.0, -18674.099609375, -62.786048889160156, -187500.015625, -57529.96875, -7890.18798828125, -26361.490234375, 7900.11181640625, -686.4667358398438, 187500.0, 187500.0, 187500.0, 185369.8125, -183370.890625, 186877.09375, -183200.453125, 135352.296875, -0.46400001645088196, 0.7560000419616699, 0.3920000195503235, 192.0, 120.5, 64.0, 11.5, 80.0, 6.0, 32.0, 0.0, 0.0, 0.0, 1.6170039583965275E9, 2021-03-29 10:45:58.396
182.0, -18155.248046875, -50.6266975402832, -187500.015625, -57532.96484375, -7909.52197265625, -26368.330078125, 7874.58642578125, -697.6426391601562, 187500.0, 187500.0, 187500.0, 185357.734375, -183417.53125, 186866.796875, -183205.4375, 135351.765625, -0.46400001645088196, 0.7560000419616699, 0.3920000195503235, 192.0, 0.0, 0.0, 0.0, 0.0, 0.0, 0.0, 0.0, 0.0, 0.0, 1.6170039583965316E9, 2021-03-29 10:45:58.396
184.0, -18388.9140625, -70.54210662841797, -187500.015625, -57548.4296875, -7902.16845703125, -26386.5234375, 7867.61279296875, -716.1498413085938, 187500.0, 187500.0, 187500.0, 185277.734375, -183368.703125, 186781.75, -183216.015625, 135265.78125, -0.46400001645088196, 0.7560000419616699, 0.3920000195503235, 192.0, 0.0, 0.0, 0.0, 0.0, 0.0, 0.0, 0.0, 0.0, 0.0, 1.6170039583965356E9, 2021-03-29 10:45:58.396
186.0, -18427.470703125, -41.373077392578125, -187500.015625, -57527.375, -7899.50830078125, -26359.298828125, 7892.087890625, -692.3452758789062, 187500.0, 187500.0, 187500.0, 185283.171875, -183369.171875, 186788.96875, -183295.734375, 135263.4375, -0.46400001645088196, 0.7560000419616699, 0.3920000195503235, 192.0, 0.0, 0.0, 0.0, 0.0, 0.0, 0.0, 0.0, 0.0, 0.0, 1.6170039583965397E9, 2021-03-29 10:45:58.396
188.0, -18118.123046875, -43.04945755004883, -187500.015625, -57530.4375, -7880.8896484375, -26358.3828125, 7906.77294921875, -678.3530883789062, 187500.0, 187500.0, 187500.0, 185305.34375, -183370.125, 186844.53125, -183465.65625, 135295.0625, -0.46400001645088196, 0.7560000419616699, 0.3920000195503235, 192.0, 0.0, 0.0, 0.0, 0.0, 0.0, 0.0, 0.0, 0.0, 0.0, 1.6170039583965468E9, 2021-03-29 10:45:58.396
190.0, -18624.388671875, -40.479007720947266, -187500.015625, -57526.32421875, -7890.32177734375, -26354.806640625, 7915.0654296875, -684.3880615234375, 187500.0, 187500.0, 187500.0, 185257.578125, -183309.84375, 186761.640625, -183317.78125, 135255.71875, -0.4660000205039978, 0.7540000081062317, 0.39000001549720764, 192.0, 120.5, 56.0, 11.5, 72.0, 6.0, 24.0, 0.0, 0.0, 0.0, 1.617003958396551E9, 2021-03-29 10:45:58.396
192.0, -18148.810546875, -17.23319435119629, -187500.015625, -57514.0078125, -7881.56005859375, -26340.033203125, 7930.8232421875, -674.8214721679688, 187500.0, 187500.0, 187500.0, 185279.546875, -183344.140625, 186789.40625, -183320.28125, 135283.84375, -0.4660000205039978, 0.7540000081062317, 0.39000001549720764, 192.0, 0.0, 0.0, 0.0, 0.0, 0.0, 0.0, 0.0, 0.0, 0.0, 1.6170039583965547E9, 2021-03-29 10:45:58.396
194.0, -18408.404296875, -38.735572814941406, -187500.015625, -57526.28125, -7872.8203125, -26359.791015625, 7926.0400390625, -688.9701538085938, 187500.0, 187500.0, 187500.0, 185254.453125, -183297.890625, 186793.28125, -183347.265625, 135264.578125, -0.4660000205039978, 0.7540000081062317, 0.39000001549720764, 192.0, 0.0, 0.0, 0.0, 0.0, 0.0, 0.0, 0.0, 0.0, 0.0, 1.617003958396559E9, 2021-03-29 10:45:58.396
196.0, -18413.1875, -18.10491180419922, -187500.015625, -57514.078125, -7889.36083984375, -26351.6328125, 7920.4521484375, -685.8856201171875, 187500.0, 187500.0, 187500.0, 185225.484375, -183322.546875, 186733.6875, -183212.328125, 135247.453125, -0.4660000205039978, 0.7540000081062317, 0.39000001549720764, 192.0, 0.0, 0.0, 0.0, 0.0, 0.0, 0.0, 0.0, 0.0, 0.0, 1.6170039583965633E9, 2021-03-29 10:45:58.396
198.0, -18066.177734375, -20.787120819091797, -187500.015625, -57514.03125, -7875.681640625, -26348.279296875, 7927.13525390625, -682.912841796875, 187500.0, 187500.0, 187500.0, 185187.171875, -183322.046875, 186715.25, -183297.109375, 135212.96875, -0.4660000205039978, 0.7540000081062317, 0.39000001549720764, 192.0, 0.0, 0.0, 0.0, 0.0, 0.0, 0.0, 0.0, 0.0, 0.0, 1.617003958396567E9, 2021-03-29 10:45:58.396
200.0, -18574.09765625, -31.873586654663086, -187500.015625, -57526.81640625, -7882.16357421875, -26354.248046875, 7927.8505859375, -692.2781982421875, 187500.0, 187500.0, 187500.0, 185186.46875, -183251.671875, 186706.4375, -183200.8125, 135201.65625, -0.46400001645088196, 0.7560000419616699, 0.39000001549720764, 192.0, 120.5, 64.0, 11.5, 80.0, 6.0, 24.0, 0.0, 0.0, 0.0, 1.6170039583965712E9, 2021-03-29 10:45:58.396
202.0, -18075.630859375, -15.981496810913086, -187500.015625, -57519.1953125, -7883.482421875, -26343.294921875, 7935.38330078125, -683.8739624023438, 187500.0, 187500.0, 187500.0, 185163.4375, -183285.390625, 186701.234375, -183405.109375, 135195.140625, -0.46400001645088196, 0.7560000419616699, 0.39000001549720764, 192.0, 0.0, 0.0, 0.0, 0.0, 0.0, 0.0, 0.0, 0.0, 0.0, 1.6170039583965755E9, 2021-03-29 10:45:58.396
204.0, -18348.234375, -42.42361068725586, -187500.015625, -57533.1640625, -7873.06640625, -26346.984375, 7914.59619140625, -691.406494140625, 187500.0, 187500.0, 187500.0, 185126.265625, -183207.625, 186654.5, -183427.375, 135158.140625, -0.46400001645088196, 0.7560000419616699, 0.39000001549720764, 192.0, 0.0, 0.0, 0.0, 0.0, 0.0, 0.0, 0.0, 0.0, 0.0, 1.6170039583965797E9, 2021-03-29 10:45:58.396
206.0, -18367.142578125, -32.65589904785156, -187500.015625, -57534.953125, -7888.17626953125, -26342.736328125, 7925.52587890625, -687.807861328125, 187500.0, 187500.0, 187500.0, 185156.4375, -183253.671875, 186668.28125, -183276.140625, 135172.703125, -0.46400001645088196, 0.7560000419616699, 0.39000001549720764, 192.0, 0.0, 0.0, 0.0, 0.0, 0.0, 0.0, 0.0, 0.0, 0.0, 1.617003958396584E9, 2021-03-29 10:45:58.396
208.0, -18004.619140625, -33.907596588134766, -187500.015625, -57540.4296875, -7870.25, -26343.09375, 7939.92041015625, -683.8963012695312, 187500.0, 187500.0, 187500.0, 185120.84375, -183526.96875, 186653.078125, -183348.203125, 135144.046875, -0.46400001645088196, 0.7560000419616699, 0.39000001549720764, 192.0, 0.0, 0.0, 0.0, 0.0, 0.0, 0.0, 0.0, 0.0, 0.0, 1.6170039583965878E9, 2021-03-29 10:45:58.396
210.0, -18487.171875, -55.43232345581055, -187500.015625, -57556.5, -7895.2392578125, -26361.892578125, 7908.203125, -706.248046875, 187500.0, 187500.0, 187500.0, 185089.84375, -183449.390625, 186611.109375, -183234.09375, 135137.65625, -0.4620000123977661, 0.7500000596046448, 0.3920000195503235, 192.0, 120.5, 72.0, 11.5, 56.0, 6.0, 32.0, 0.0, 0.0, 0.0, 1.6170039583965921E9, 2021-03-29 10:45:58.396
212.0, -17997.623046875, -33.4605598449707, -187500.015625, -57548.02734375, -7898.078125, -26355.9921875, 7916.25, -702.0235595703125, 187500.0, 187500.0, 187500.0, 185058.46875, -183476.921875, 186595.6875, -183407.515625, 135103.640625, -0.4620000123977661, 0.7500000596046448, 0.3920000195503235, 192.0, 0.0, 0.0, 0.0, 0.0, 0.0, 0.0, 0.0, 0.0, 0.0, 1.617003958396597E9, 2021-03-29 10:45:58.396
214.0, -18237.837890625, -61.288482666015625, -187500.015625, -57555.5625, -7886.11962890625, -26375.6171875, 7925.54833984375, -717.73681640625, 187500.0, 187500.0, 187500.0, 185015.46875, -183420.21875, 186552.21875, -183428.9375, 135068.40625, -0.4620000123977661, 0.7500000596046448, 0.3920000195503235, 192.0, 0.0, 0.0, 0.0, 0.0, 0.0, 0.0, 0.0, 0.0, 0.0, 1.6170039583966007E9, 2021-03-29 10:45:58.396
216.0, -18298.791015625, -34.17581558227539, -187500.015625, -57525.96875, -7882.72216796875, -26353.197265625, 7938.6240234375, -700.7271728515625, 187500.0, 187500.0, 187500.0, 185033.84375, -183413.53125, 186545.109375, -183274.265625, 135082.515625, -0.4620000123977661, 0.7500000596046448, 0.3920000195503235, 192.0, 0.0, 0.0, 0.0, 0.0, 0.0, 0.0, 0.0, 0.0, 0.0, 1.6170039583966048E9, 2021-03-29 10:45:58.396
218.0, -17917.962890625, -55.901710510253906, -187500.015625, -57539.35546875, -7877.60400390625, -26362.80859375, 7925.95068359375, -711.590087890625, 187500.0, 187500.0, 187500.0, 185012.515625, -183394.9375, 186538.671875, -183347.828125, 135075.390625, -0.4620000123977661, 0.7500000596046448, 0.3920000195503235, 192.0, 0.0, 0.0, 0.0, 0.0, 0.0, 0.0, 0.0, 0.0, 0.0, 1.6170039583966093E9, 2021-03-29 10:45:58.396
220.0, -18440.009765625, -47.43040084838867, -187500.015625, -57537.8359375, -7879.1015625, -26358.13671875, 7931.38232421875, -711.9030151367188, 187500.0, 187500.0, 187500.0, 184990.1875, -183312.03125, 186534.078125, -183231.5, 135052.34375, -0.46000000834465027, 0.7560000419616699, 0.40400001406669617, 192.0, 120.5, 80.0, 11.5, 80.0, 6.0, 80.0, 0.0, 0.0, 0.0, 1.6170039583966136E9, 2021-03-29 10:45:58.396
222.0, -17981.6875, -18.73076057434082, -187500.015625, -57528.55859375, -7870.5185546875, -26343.5859375, 7950.626953125, -700.54833984375, 187500.0, 187500.0, 187500.0, 185031.484375, -183335.234375, 186596.265625, -183416.78125, 135093.671875, -0.46000000834465027, 0.7560000419616699, 0.40400001406669617, 192.0, 0.0, 0.0, 0.0, 0.0, 0.0, 0.0, 0.0, 0.0, 0.0, 1.6170039583966193E9, 2021-03-29 10:45:58.396
224.0, -18211.84375, -57.33222198486328, -187500.015625, -57565.41796875, -7873.80419921875, -26365.333984375, 7935.4501953125, -714.9205322265625, 187500.0, 187500.0, 187500.0, 184994.859375, -183273.6875, 186510.421875, -183441.671875, 135059.5625, -0.46000000834465027, 0.7560000419616699, 0.40400001406669617, 192.0, 0.0, 0.0, 0.0, 0.0, 0.0, 0.0, 0.0, 0.0, 0.0, 1.6170039588766336E9, 2021-03-29 10:45:58.876
226.0, -18242.978515625, -36.343936920166016, -187500.015625, -57558.9375, -7881.78369140625, -26347.1171875, 7950.0458984375, -704.9739990234375, 187500.0, 187500.0, 187500.0, 184959.3125, -183257.765625, 186478.453125, -183286.578125, 135019.484375, -0.46000000834465027, 0.7560000419616699, 0.40400001406669617, 192.0, 0.0, 0.0, 0.0, 0.0, 0.0, 0.0, 0.0, 0.0, 0.0, 1.6170039588766398E9, 2021-03-29 10:45:58.876
228.0, -17848.671875, -46.37986755371094, -187500.015625, -57573.3515625, -7875.033203125, -26356.28125, 7938.93701171875, -713.892333984375, 187500.0, 187500.0, 187500.0, 184935.21875, -183233.96875, 186477.359375, -183365.5625, 135006.359375, -0.46000000834465027, 0.7560000419616699, 0.40400001406669617, 192.0, 0.0, 0.0, 0.0, 0.0, 0.0, 0.0, 0.0, 0.0, 0.0, 1.6170039588766437E9, 2021-03-29 10:45:58.876
230.0, -18404.873046875, -26.308002471923828, -187500.015625, -57554.33203125, -7870.8310546875, -26335.517578125, 7953.80078125, -695.2957153320312, 187500.0, 187500.0, 187500.0, 184925.828125, -183056.9375, 186471.484375, -183246.875, 135005.609375, -0.4580000340938568, 0.7560000419616699, 0.40800002217292786, 192.0, 120.5, 88.0, 11.5, 80.0, 6.0, 96.0, 0.0, 0.0, 0.0, 1.6170039588766482E9, 2021-03-29 10:45:58.876
232.0, -17942.37109375, -1.9893051385879517, -187500.015625, -57549.50390625, -7879.2802734375, -26334.869140625, 7951.29736328125, -697.1732177734375, 187500.0, 187500.0, 187500.0, 184967.546875, -183461.75, 186546.375, -183400.578125, 135074.40625, -0.4580000340938568, 0.7560000419616699, 0.40800002217292786, 192.0, 0.0, 0.0, 0.0, 0.0, 0.0, 0.0, 0.0, 0.0, 0.0, 1.6170039588766527E9, 2021-03-29 10:45:58.876
234.0, -18178.6953125, -36.05336380004883, -187500.015625, -57573.80078125, -7869.4677734375, -26352.4375, 7933.10302734375, -716.7756958007812, 187500.0, 187500.0, 187500.0, 184943.359375, -183514.4375, 186506.28125, -183432.796875, 135060.75, -0.4580000340938568, 0.7560000419616699, 0.40800002217292786, 192.0, 0.0, 0.0, 0.0, 0.0, 0.0, 0.0, 0.0, 0.0, 0.0, 1.6170039588766572E9, 2021-03-29 10:45:58.876
236.0, -18191.79296875, -39.76375198364258, -187500.015625, -57592.10546875, -7893.58544921875, -26361.625, 7910.79638671875, -729.2256469726562, 187500.0, 187500.0, 187500.0, 184895.484375, -183512.171875, 186480.828125, -183286.0, 135019.109375, -0.4580000340938568, 0.7560000419616699, 0.40800002217292786, 192.0, 0.0, 0.0, 0.0, 0.0, 0.0, 0.0, 0.0, 0.0, 0.0, 1.6170039588766613E9, 2021-03-29 10:45:58.876
238.0, -17823.482421875, -25.8609676361084, -187500.015625, -57575.43359375, -7877.0224609375, -26347.833984375, 7916.8759765625, -720.4637451171875, 187500.0, 187500.0, 187500.0, 184846.53125, -183494.1875, 186440.046875, -183358.640625, 134981.4375, -0.4580000340938568, 0.7560000419616699, 0.40800002217292786, 192.0, 0.0, 0.0, 0.0, 0.0, 0.0, 0.0, 0.0, 0.0, 0.0, 1.617003958876666E9, 2021-03-29 10:45:58.876
240.0, -18337.03515625, -27.425588607788086, -187500.015625, -57578.94140625, -7869.55712890625, -26342.6484375, 7925.9951171875, -718.54150390625, 187500.0, 187500.0, 187500.0, 184842.59375, -183412.390625, 186454.21875, -183243.46875, 134993.71875, -0.46000000834465027, 0.7520000338554382, 0.4000000059604645, 192.0, 120.5, 80.0, 11.5, 64.0, 6.0, 64.0, 0.0, 0.0, 0.0, 1.6170039588766713E9, 2021-03-29 10:45:58.876
242.0, -17865.615234375, -13.90278434753418, -187500.015625, -57580.66015625, -7880.6435546875, -26337.126953125, 7920.78759765625, -711.1878051757812, 187500.0, 187500.0, 187500.0, 184855.375, -183438.09375, 186465.078125, -183411.296875, 135015.859375, -0.46000000834465027, 0.7520000338554382, 0.4000000059604645, 192.0, 0.0, 0.0, 0.0, 0.0, 0.0, 0.0, 0.0, 0.0, 0.0, 1.6170039588766756E9, 2021-03-29 10:45:58.876
244.0, -18080.99609375, -42.647125244140625, -187500.015625, -57601.42578125, -7873.73681640625, -26353.041015625, 7937.17138671875, -727.3704223632812, 187500.0, 187500.0, 187500.0, 184782.9375, -183382.828125, 186394.828125, -183438.484375, 134953.5625, -0.46000000834465027, 0.7520000338554382, 0.4000000059604645, 192.0, 0.0, 0.0, 0.0, 0.0, 0.0, 0.0, 0.0, 0.0, 0.0, 1.6170039588766797E9, 2021-03-29 10:45:58.876
246.0, -18160.30078125, -21.256507873535156, -187500.015625, -57601.62890625, -7876.1064453125, -26340.5234375, 7933.4833984375, -716.8427734375, 187500.0, 187500.0, 187500.0, 184774.640625, -183365.953125, 186427.375, -183275.09375, 134952.71875, -0.46000000834465027, 0.7520000338554382, 0.4000000059604645, 192.0, 0.0, 0.0, 0.0, 0.0, 0.0, 0.0, 0.0, 0.0, 0.0, 1.6170039588766837E9, 2021-03-29 10:45:58.876
248.0, -17734.41015625, -23.715200424194336, -187500.015625, -57610.9921875, -7874.67578125, -26353.935546875, 7921.59228515625, -728.53271484375, 187500.0, 187500.0, 187500.0, 184759.40625, -183345.59375, 186381.953125, -183344.0625, 134928.78125, -0.46000000834465027, 0.7520000338554382, 0.4000000059604645, 192.0, 0.0, 0.0, 0.0, 0.0, 0.0, 0.0, 0.0, 0.0, 0.0, 1.6170039588766875E9, 2021-03-29 10:45:58.876
250.0, -18257.150390625, -17.590822219848633, -187500.015625, -57610.25390625, -7867.0986328125, -26343.541015625, 7938.48974609375, -717.8709716796875, 187500.0, 187500.0, 187500.0, 184731.46875, -183248.484375, 186371.390625, -183229.640625, 134904.03125, -0.4580000340938568, 0.7500000596046448, 0.4000000059604645, 192.0, 120.5, 88.0, 11.5, 56.0, 6.0, 64.0, 0.0, 0.0, 0.0, 1.6170039588766916E9, 2021-03-29 10:45:58.876
252.0, -17793.083984375, -16.048551559448242, -187500.015625, -57620.3828125, -7882.16357421875, -26344.501953125, 7929.57177734375, -720.5978393554688, 187500.0, 187500.0, 187500.0, 184747.46875, -183265.015625, 186386.625, -183406.515625, 134931.578125, -0.4580000340938568, 0.7500000596046448, 0.4000000059604645, 192.0, 0.0, 0.0, 0.0, 0.0, 0.0, 0.0, 0.0, 0.0, 0.0, 1.6170039588766954E9, 2021-03-29 10:45:58.876
254.0, -18014.9921875, -38.310890197753906, -187500.015625, -57638.6640625, -7871.99365234375, -26360.23828125, 7919.31201171875, -735.4617919921875, 187500.0, 187500.0, 187500.0, 184703.4375, -183155.34375, 186355.046875, -183431.84375, 134887.9375, -0.4580000340938568, 0.7500000596046448, 0.4000000059604645, 192.0, 0.0, 0.0, 0.0, 0.0, 0.0, 0.0, 0.0, 0.0, 0.0, 1.6170039588766997E9, 2021-03-29 10:45:58.876
0.0, -18128.984375, -8.91834545135498, -187500.015625, -57616.203125, -7874.8994140625, -26341.75390625, 7926.8896484375, -721.1790161132812, 187500.0, 187500.0, 187500.0, 184743.265625, -183226.625, 186399.703125, -183251.171875, 134919.265625, -0.4580000340938568, 0.7500000596046448, 0.4000000059604645, 192.0, 0.0, 0.0, 0.0, 0.0, 0.0, 0.0, 0.0, 0.0, 0.0, 1.617003958876713E9, 2021-03-29 10:45:58.876
2.0, -17730.23046875, -25.41393280029297, -187500.015625, -57637.0546875, -7867.9033203125, -26365.40234375, 7930.10791015625, -736.1546630859375, 187500.0, 187500.0, 187500.0, 184734.921875, -183543.09375, 186418.90625, -183320.953125, 134935.375, -0.4580000340938568, 0.7500000596046448, 0.4000000059604645, 192.0, 0.0, 0.0, 0.0, 0.0, 0.0, 0.0, 0.0, 0.0, 0.0, 1.6170039588767169E9, 2021-03-29 10:45:58.876
4.0, -18241.638671875, -30.376020431518555, -187500.015625, -57629.87890625, -7873.20068359375, -26356.080078125, 7926.97900390625, -738.7027587890625, 187500.0, 187500.0, 187500.0, 184704.5, -183452.5, 186351.34375, -183218.0, 134905.265625, -0.45000001788139343, 0.7520000338554382, 0.4000000059604645, 192.0, 120.5, 120.0, 11.5, 64.0, 6.0, 64.0, 0.0, 0.0, 0.0, 1.6170039588767207E9, 2021-03-29 10:45:58.876
6.0, -17821.3359375, 2.6598575115203857, -187500.015625, -57605.18359375, -7877.15673828125, -26341.240234375, 7939.36181640625, -723.4812622070312, 187500.0, 187500.0, 187500.0, 184726.65625, -183471.21875, 186396.71875, -183415.34375, 134934.90625, -0.45000001788139343, 0.7520000338554382, 0.4000000059604645, 192.0, 0.0, 0.0, 0.0, 0.0, 0.0, 0.0, 0.0, 0.0, 0.0, 1.6170039588767245E9, 2021-03-29 10:45:58.876
8.0, -18031.93359375, -38.15442657470703, -187500.015625, -57638.26171875, -7873.4912109375, -26367.078125, 7922.91064453125, -749.073974609375, 187500.0, 187500.0, 187500.0, 184703.1875, -183416.578125, 186359.71875, -183456.03125, 134916.90625, -0.45000001788139343, 0.7520000338554382, 0.4000000059604645, 192.0, 0.0, 0.0, 0.0, 0.0, 0.0, 0.0, 0.0, 0.0, 0.0, 1.6170039588767283E9, 2021-03-29 10:45:58.876
10.0, -18134.572265625, -17.635526657104492, -187500.015625, -57628.98828125, -7882.36474609375, -26353.7109375, 7926.0400390625, -741.3402709960938, 187500.0, 187500.0, 187500.0, 184697.890625, -183390.15625, 186357.5, -183296.953125, 134900.34375, -0.45000001788139343, 0.7520000338554382, 0.4000000059604645, 192.0, 0.0, 0.0, 0.0, 0.0, 0.0, 0.0, 0.0, 0.0, 0.0, 1.617003958876732E9, 2021-03-29 10:45:58.876
12.0, -17712.236328125, -27.291479110717773, -187500.015625, -57644.5, -7879.458984375, -26364.59765625, 7904.15771484375, -757.567626953125, 187500.0, 187500.0, 187500.0, 184683.515625, -183374.796875, 186387.640625, -183373.03125, 134893.984375, -0.45000001788139343, 0.7520000338554382, 0.4000000059604645, 192.0, 0.0, 0.0, 0.0, 0.0, 0.0, 0.0, 0.0, 0.0, 0.0, 1.617003958876736E9, 2021-03-29 10:45:58.876
14.0, -18220.626953125, -12.673439025878906, -187500.015625, -57631.55859375, -7879.72705078125, -26348.1015625, 7906.34814453125, -740.8709106445312, 187500.0, 187500.0, 187500.0, 184606.96875, -183281.015625, 186296.0625, -183254.640625, 134837.4375, -0.4620000123977661, 0.7540000081062317, 0.4020000100135803, 192.0, 120.5, 72.0, 11.5, 72.0, 6.0, 72.0, 0.0, 0.0, 0.0, 1.61700395887674E9, 2021-03-29 10:45:58.876
16.0, -17793.57421875, -5.9679155349731445, -187500.015625, -57631.04296875, -7883.9072265625, -26349.0625, 7937.35009765625, -744.380126953125, 187500.0, 187500.0, 187500.0, 184649.34375, -183295.859375, 186348.140625, -183405.828125, 134886.359375, -0.4620000123977661, 0.7540000081062317, 0.4020000100135803, 192.0, 0.0, 0.0, 0.0, 0.0, 0.0, 0.0, 0.0, 0.0, 0.0, 1.6170039588767438E9, 2021-03-29 10:45:58.876
18.0, -17988.21484375, -14.416874885559082, -187500.015625, -57635.55859375, -7868.640625, -26347.140625, 7930.48828125, -747.2411499023438, 187500.0, 187500.0, 187500.0, 184609.640625, -183202.09375, 186297.09375, -183433.34375, 134840.40625, -0.4620000123977661, 0.7540000081062317, 0.4020000100135803, 192.0, 0.0, 0.0, 0.0, 0.0, 0.0, 0.0, 0.0, 0.0, 0.0, 1.6170039588767476E9, 2021-03-29 10:45:58.876
20.0, -18101.560546875, -17.076732635498047, -187500.015625, -57641.03515625, -7879.57080078125, -26350.380859375, 7924.2744140625, -750.9067993164062, 187500.0, 187500.0, 187500.0, 184653.640625, -183232.078125, 186353.4375, -183252.578125, 134886.578125, -0.4620000123977661, 0.7540000081062317, 0.4020000100135803, 192.0, 0.0, 0.0, 0.0, 0.0, 0.0, 0.0, 0.0, 0.0, 0.0, 1.6170039588767517E9, 2021-03-29 10:45:58.876
22.0, -17699.80859375, -18.484891891479492, -187500.015625, -57646.53125, -7870.94287109375, -26358.96484375, 7923.291015625, -752.0914916992188, 187500.0, 187500.0, 187500.0, 184616.1875, -183553.28125, 186324.140625, -183318.078125, 134854.0, -0.4620000123977661, 0.7540000081062317, 0.4020000100135803, 192.0, 0.0, 0.0, 0.0, 0.0, 0.0, 0.0, 0.0, 0.0, 0.0, 1.6170039588767555E9, 2021-03-29 10:45:58.876
24.0, -18243.3359375, -0.46938660740852356, -187500.015625, -57626.4375, -7859.119140625, -26338.4453125, 7949.62109375, -734.6124267578125, 187500.0, 187500.0, 187500.0, 184641.625, -183470.828125, 186316.84375, -183219.140625, 134884.765625, -0.46400001645088196, 0.7560000419616699, 0.3920000195503235, 192.0, 120.5, 64.0, 11.5, 80.0, 6.0, 32.0, 0.0, 0.0, 0.0, 1.6170039588767593E9, 2021-03-29 10:45:58.876
26.0, -17823.50390625, 19.557775497436523, -187500.015625, -57615.64453125, -7865.466796875, -26330.80078125, 7952.10205078125, -732.8689575195312, 187500.0, 187500.0, 187500.0, 184658.859375, -183497.0, 186354.75, -183400.703125, 134913.71875, -0.46400001645088196, 0.7560000419616699, 0.3920000195503235, 192.0, 0.0, 0.0, 0.0, 0.0, 0.0, 0.0, 0.0, 0.0, 0.0, 1.617003958876763E9, 2021-03-29 10:45:58.876
28.0, -18026.234375, -10.25944995880127, -187500.015625, -57644.5, -7859.23046875, -26358.00390625, 7939.8759765625, -754.6171875, 187500.0, 187500.0, 187500.0, 184652.78125, -183452.3125, 186365.625, -183438.4375, 134916.796875, -0.46400001645088196, 0.7560000419616699, 0.3920000195503235, 192.0, 0.0, 0.0, 0.0, 0.0, 0.0, 0.0, 0.0, 0.0, 0.0, 1.6170039588767667E9, 2021-03-29 10:45:58.876
30.0, -18124.24609375, -1.0952354669570923, -187500.015625, -57640.02734375, -7877.76025390625, -26358.00390625, 7935.98681640625, -758.5511474609375, 187500.0, 187500.0, 187500.0, 184619.25, -183434.40625, 186318.375, -183276.1875, 134871.78125, -0.46400001645088196, 0.7560000419616699, 0.3920000195503235, 192.0, 0.0, 0.0, 0.0, 0.0, 0.0, 0.0, 0.0, 0.0, 0.0, 1.6170039588767707E9, 2021-03-29 10:45:58.876
32.0, -17709.64453125, -11.04176139831543, -187500.015625, -57652.8359375, -7877.044921875, -26371.48046875, 7927.11279296875, -773.5714721679688, 187500.0, 187500.0, 187500.0, 184587.875, -183420.890625, 186318.078125, -183344.890625, 134838.390625, -0.46400001645088196, 0.7560000419616699, 0.39400002360343933, 192.0, 120.5, 64.0, 11.5, 80.0, 6.0, 48.0, 0.0, 0.0, 0.0, 1.6170039588767745E9, 2021-03-29 10:45:58.876
34.0, -18255.16015625, -12.829900741577148, -187500.015625, -57646.30859375, -7866.13720703125, -26358.875, 7939.0712890625, -762.2391357421875, 187500.0, 187500.0, 187500.0, 184575.53125, -183329.65625, 186278.515625, -183238.515625, 134821.609375, -0.46400001645088196, 0.7560000419616699, 0.39400002360343933, 192.0, 0.0, 0.0, 0.0, 0.0, 0.0, 0.0, 0.0, 0.0, 0.0, 1.6170039588767798E9, 2021-03-29 10:45:58.876
36.0, -17858.685546875, 11.466444969177246, -187500.015625, -57631.19921875, -7870.56298828125, -26334.19921875, 7943.4521484375, -737.3169555664062, 187500.0, 187500.0, 187500.0, 184637.765625, -183355.125, 186357.65625, -183412.375, 134901.84375, -0.46400001645088196, 0.7560000419616699, 0.39400002360343933, 192.0, 0.0, 0.0, 0.0, 0.0, 0.0, 0.0, 0.0, 0.0, 0.0, 1.6170039588767836E9, 2021-03-29 10:45:58.876
38.0, -18028.4921875, -19.088388442993164, -187500.015625, -57655.47265625, -7867.61279296875, -26355.41015625, 7922.240234375, -769.5928955078125, 187500.0, 187500.0, 187500.0, 184586.6875, -183308.03125, 186307.078125, -183455.203125, 134865.65625, -0.46400001645088196, 0.7560000419616699, 0.39400002360343933, 192.0, 0.0, 0.0, 0.0, 0.0, 0.0, 0.0, 0.0, 0.0, 0.0, 1.617003958876788E9, 2021-03-29 10:45:58.876
40.0, -18153.103515625, -0.35762789845466614, -187500.015625, -57653.640625, -7879.79443359375, -26350.939453125, 7934.98095703125, -767.871826171875, 187500.0, 187500.0, 187500.0, 184585.21875, -183283.984375, 186297.421875, -183290.5625, 134855.25, -0.46400001645088196, 0.7560000419616699, 0.39400002360343933, 192.0, 0.0, 0.0, 0.0, 0.0, 0.0, 0.0, 0.0, 0.0, 0.0, 1.6170039588767917E9, 2021-03-29 10:45:58.876
42.0, -17731.4140625, -12.338162422180176, -187500.015625, -57656.79296875, -7870.7197265625, -26341.685546875, 7936.32177734375, -765.7260131835938, 187500.0, 187500.0, 187500.0, 184543.015625, -183270.65625, 186284.4375, -183361.40625, 134824.640625, -0.46000002324581146, 0.7580000460147858, 0.40000002086162567, 192.0, 120.5, 96.0, 11.5, 96.0, 6.0, 88.0, 0.0, 0.0, 0.0, 1.6170039588767955E9, 2021-03-29 10:45:58.876
44.0, -18273.466796875, -11.444092750549316, -187500.015625, -57654.98046875, -7873.35693359375, -26337.796875, 7938.04296875, -763.5579223632812, 187500.0, 187500.0, 187500.0, 184542.34375, -183089.234375, 186281.890625, -183245.140625, 134835.4375, -0.46000002324581146, 0.7580000460147858, 0.40000002086162567, 192.0, 0.0, 0.0, 0.0, 0.0, 0.0, 0.0, 0.0, 0.0, 0.0, 1.6170039588768E9, 2021-03-29 10:45:58.876
46.0, -17868.6328125, 12.025238037109375, -187500.015625, -57640.5859375, -7876.35205078125, -26332.87890625, 7933.7958984375, -759.0875854492188, 187500.0, 187500.0, 187500.0, 184610.0625, -183448.15625, 186347.46875, -183395.03125, 134906.71875, -0.46000002324581146, 0.7580000460147858, 0.40000002086162567, 192.0, 0.0, 0.0, 0.0, 0.0, 0.0, 0.0, 0.0, 0.0, 0.0, 1.6170039588768039E9, 2021-03-29 10:45:58.876
48.0, -18055.24609375, 0.06705523282289505, -187500.015625, -57644.02734375, -7846.98193359375, -26340.0546875, 7959.8134765625, -760.7415771484375, 187500.0, 187500.0, 187500.0, 184599.296875, -183523.0625, 186308.375, -183434.765625, 134900.546875, -0.46000002324581146, 0.7580000460147858, 0.40000002086162567, 192.0, 0.0, 0.0, 0.0, 0.0, 0.0, 0.0, 0.0, 0.0, 0.0, 1.6170039588768077E9, 2021-03-29 10:45:58.876
50.0, -18177.578125, 9.432435989379883, -187500.015625, -57644.609375, -7865.17626953125, -26347.453125, 7954.60546875, -767.1342163085938, 187500.0, 187500.0, 187500.0, 184570.390625, -183505.140625, 186291.75, -183273.390625, 134876.65625, -0.46000002324581146, 0.7580000460147858, 0.40000002086162567, 192.0, 0.0, 0.0, 0.0, 0.0, 0.0, 0.0, 0.0, 0.0, 0.0, 1.6170039588768115E9, 2021-03-29 10:45:58.876
52.0, -17748.111328125, 8.516014099121094, -187500.015625, -57647.11328125, -7856.34716796875, -26351.251953125, 7936.478515625, -770.1964111328125, 187500.0, 187500.0, 187500.0, 184564.453125, -183497.484375, 186336.078125, -183344.453125, 134876.921875, -0.4610000178217888, 0.7600000351667404, 0.40300001949071884, 192.0, 120.5, 72.0, 11.5, 104.0, 6.0, 88.0, 0.0, 0.0, 0.0, 1.6170039588768156E9, 2021-03-29 10:45:58.876
54.0, -18287.1015625, 17.970802307128906, -187500.015625, -57638.10546875, -7846.40087890625, -26335.94140625, 7962.00390625, -758.3946533203125, 187500.0, 187500.0, 187500.0, 184539.765625, -183412.640625, 186277.0625, -183241.09375, 134839.546875, -0.4610000178217888, 0.7600000351667404, 0.40300001949071884, 192.0, 0.0, 0.0, 0.0, 0.0, 0.0, 0.0, 0.0, 0.0, 0.0, 1.6170039588768194E9, 2021-03-29 10:45:58.876
56.0, -17886.513671875, 26.352705001831055, -187500.015625, -57647.1796875, -7868.484375, -26333.751953125, 7953.93505859375, -764.966064453125, 187500.0, 187500.0, 187500.0, 184577.390625, -183440.515625, 186356.59375, -183412.34375, 134901.046875, -0.4610000178217888, 0.7600000351667404, 0.40300001949071884, 192.0, 0.0, 0.0, 0.0, 0.0, 0.0, 0.0, 0.0, 0.0, 0.0, 1.6170039588768232E9, 2021-03-29 10:45:58.876
58.0, -18045.92578125, 4.135072708129883, -187500.015625, -57660.59375, -7847.1162109375, -26338.423828125, 7960.08154296875, -770.1069946289062, 187500.0, 187500.0, 187500.0, 184542.640625, -183394.421875, 186260.8125, -183458.828125, 134867.265625, -0.4610000178217888, 0.7600000351667404, 0.40300001949071884, 192.0, 0.0, 0.0, 0.0, 0.0, 0.0, 0.0, 0.0, 0.0, 0.0, 1.6170039588768272E9, 2021-03-29 10:45:58.876
60.0, -18159.71875, 1.2964011430740356, -187500.015625, -57671.03125, -7871.52392578125, -26341.373046875, 7943.67578125, -781.5286865234375, 187500.0, 187500.0, 187500.0, 184510.890625, -183369.390625, 186268.703125, -183290.015625, 134842.609375, -0.4610000178217888, 0.7600000351667404, 0.40300001949071884, 192.0, 0.0, 0.0, 0.0, 0.0, 0.0, 0.0, 0.0, 0.0, 0.0, 1.617003958876831E9, 2021-03-29 10:45:58.876
62.0, -17730.810546875, 4.179776191711426, -187500.015625, -57667.25390625, -7863.298828125, -26337.595703125, 7935.15966796875, -786.51318359375, 187500.0, 187500.0, 187500.0, 184466.078125, -183353.828125, 186256.546875, -183353.90625, 134805.09375, -0.4585000239312649, 0.7630000337958336, 0.40650002285838127, 192.0, 120.5, 96.0, 11.5, 120.0, 6.0, 104.0, 0.0, 0.0, 0.0, 1.617003958876835E9, 2021-03-29 10:45:58.876
64.0, -18269.845703125, 6.95139217376709, -187500.015625, -57660.859375, -7864.12548828125, -26333.3046875, 7946.2236328125, -775.4937744140625, 187500.0, 187500.0, 187500.0, 184461.515625, -183260.203125, 186207.796875, -183242.328125, 134800.53125, -0.4585000239312649, 0.7630000337958336, 0.40650002285838127, 192.0, 0.0, 0.0, 0.0, 0.0, 0.0, 0.0, 0.0, 0.0, 0.0, 1.6170039588768387E9, 2021-03-29 10:45:58.876
66.0, -17873.7734375, 23.469331741333008, -187500.015625, -57650.46484375, -7870.7197265625, -26328.431640625, 7964.7978515625, -771.31396484375, 187500.0, 187500.0, 187500.0, 184523.765625, -183280.0, 186289.171875, -183398.96875, 134870.90625, -0.4585000239312649, 0.7630000337958336, 0.40650002285838127, 192.0, 0.0, 0.0, 0.0, 0.0, 0.0, 0.0, 0.0, 0.0, 0.0, 1.6170039588768425E9, 2021-03-29 10:45:58.876
